*******************************************************************************************************
Z     A     E(GeV)     Theta(deg)     Energy Loss(GeV)     Sigma(#mub/sr/GeV)     ERROR     Citation     
*******************************************************************************************************
6     12     0.62          81             0.0031              0                     0
6     12     0.62          81             0.0093              0                     0
6     12     0.62          81             0.0155              0                     0
6     12     0.62          81             0.0217              0                     0
6     12     0.62          81             0.0279              0                     0
6     12     0.62          81             0.0341              0                     0
6     12     0.62          81             0.0403              0                     0
6     12     0.62          81             0.0465              0                     0
6     12     0.62          81             0.0527              0                     0
6     12     0.62          81             0.0589              0                     0
6     12     0.62          81             0.0651              0                     0
6     12     0.62          81             0.0713              0                     0
6     12     0.62          81             0.0775              0                     0
6     12     0.62          81             0.0837              0                     0
6     12     0.62          81             0.0899              0                     0
6     12     0.62          81             0.0961              0                     0
6     12     0.62          81             0.1023              0                     0
6     12     0.62          81             0.1085              0                     0
6     12     0.62          81             0.1147              0                     0
6     12     0.62          81             0.1209              0                     0
6     12     0.62          81             0.1271              1.61698                     1.61698
6     12     0.62          81             0.1333              3.23396                     2.28676
6     12     0.62          81             0.1395              14.5528                     4.85094
6     12     0.62          81             0.1457              37.1906                     7.75477
6     12     0.62          81             0.1519              67.9132                     10.4792
6     12     0.62          81             0.1581              122.891                     14.0965
6     12     0.62          81             0.1643              139.06                     14.9953
6     12     0.62          81             0.1705              190.804                     17.5649
6     12     0.62          81             0.1767              198.889                     17.9332
6     12     0.62          81             0.1829              282.972                     21.3907
6     12     0.62          81             0.1891              337.949                     23.3764
6     12     0.62          81             0.1953              412.33                     25.8211
6     12     0.62          81             0.2015              496.413                     28.3318
6     12     0.62          81             0.2077              546.54                     29.7278
6     12     0.62          81             0.2139              570.794                     30.3803
6     12     0.62          81             0.2201              646.793                     32.3396
6     12     0.62          81             0.2263              662.962                     32.7414
6     12     0.62          81             0.2325              730.876                     34.3775
6     12     0.62          81             0.2387              755.13                     34.9433
6     12     0.62          81             0.2449              716.323                     34.0335
6     12     0.62          81             0.2511              693.685                     33.4914
6     12     0.62          81             0.2573              734.11                     34.4535
6     12     0.62          81             0.2635              641.942                     32.2181
6     12     0.62          81             0.2697              646.793                     32.3396
6     12     0.62          81             0.2759              603.134                     31.2291
6     12     0.62          81             0.2821              612.836                     31.4793
6     12     0.62          81             0.2883              637.091                     32.0962
6     12     0.62          81             0.2945              599.9                     31.1453
6     12     0.62          81             0.3007              553.008                     29.9032
6     12     0.62          81             0.3069              498.03                     28.3779
6     12     0.62          81             0.3131              506.115                     28.6073
6     12     0.62          81             0.3193              520.668                     29.0157
6     12     0.62          81             0.3255              528.753                     29.2401
6     12     0.62          81             0.3317              454.372                     27.1055
6     12     0.62          81             0.3379              485.094                     28.0069
6     12     0.62          81             0.3441              483.477                     27.9602
6     12     0.62          81             0.3503              480.243                     27.8666
6     12     0.62          81             0.3565              494.796                     28.2856
6     12     0.62          81             0.3627              522.285                     29.0607
6     12     0.62          81             0.3689              527.136                     29.1954
6     12     0.62          81             0.3751              554.625                     29.9469
6     12     0.62          81             0.3813              574.028                     30.4663
6     12     0.62          81             0.3875              607.985                     31.3544
6     12     0.62          81             0.3937              700.153                     33.6472
6     12     0.62          81             0.3999              666.196                     32.8211
6     12     0.62          81             0.4061              698.536                     33.6083
6     12     0.62          81             0.4123              763.215                     35.1298
6     12     0.62          81             0.4185              764.832                     35.167
6     12     0.62          81             0.4247              769.683                     35.2784
6     12     0.62          81             0.4309              768.066                     35.2413
6     12     0.62          81             0.4371              866.702                     37.4358
6     12     0.62          81             0.4433              949.168                     39.1764
6     12     0.62          81             0.4495              855.383                     37.1906
6     12     0.62          81             0.4557              944.317                     39.0761
6     12     0.62          81             0.4619              920.062                     38.571
6     12     0.62          81             0.4681              958.87                     39.3761
6     12     0.62          81             0.4743              944.317                     39.0761
6     12     0.62          81             0.4805              958.87                     39.3761
6     12     0.62          81             0.4867              989.593                     40.0019
6     12     0.62          81             0.4929              865.085                     37.4009
6     12     0.62          81             0.4991              882.872                     37.7834
6     12     0.62          81             0.5053              890.957                     37.956
6     12     0.62          81             0.5115              873.17                     37.5753
6     12     0.62          81             0.5177              750.279                     34.8308
6     12     0.62          81             0.5239              824.661                     36.5166
6     12     0.62          81             0.5301              711.472                     33.9181
6     12     0.62          81             0.5363              637.091                     32.0962
6     12     0.62          81             0.5425              654.877                     32.5411
6     12     0.62          81             0.5487              654.877                     32.5411
6     12     0.62          81             0.5549              654.877                     32.5411
6     12     0.62          81             0.5611              585.347                     30.7652
6     12     0.62          81             0.5673              549.774                     29.8157
6     12     0.62          81             0.5735              553.008                     29.9032
6     12     0.62          81             0.5797              538.455                     29.5071
6     12     0.62          81             0.5859              540.072                     29.5514
6     12     0.62          81             0.5921              515.817                     28.8802
6     12     0.62          81             0.5983              396.16                     25.3098
6     12     0.62          81             0.6045              0                     0
6     12     0.62          81             0.6107              0                     0
*******************************************************************************************************
 Average angle 80.97 +- 0.482735 deg 
 Average E' 0.222595 +- 0.00132709 GeV 
