*******************************************************************************************************
Z     A     E(GeV)     Theta(deg)     Energy Loss(GeV)     Sigma(#mub/sr/GeV)     ERROR     Citation     
*******************************************************************************************************
6     12     0.24          91.3333             0.0012              85.6571                     14.911
6     12     0.24          91.3333             0.0036              77.8701                     14.2171
6     12     0.24          91.3333             0.006              98.6354                     16.0008
6     12     0.24          91.3333             0.0084              106.422                     16.6204
6     12     0.24          91.3333             0.0108              140.166                     19.0742
6     12     0.24          91.3333             0.0132              127.188                     18.1697
6     12     0.24          91.3333             0.0156              166.123                     20.7654
6     12     0.24          91.3333             0.018              158.336                     20.2728
6     12     0.24          91.3333             0.0204              116.805                     17.4123
6     12     0.24          91.3333             0.0228              142.762                     19.25
6     12     0.24          91.3333             0.0252              228.419                     24.3495
6     12     0.24          91.3333             0.0276              243.993                     25.1659
6     12     0.24          91.3333             0.03              272.545                     26.5977
6     12     0.24          91.3333             0.0324              454.242                     34.3375
6     12     0.24          91.3333             0.0348              770.914                     44.7329
6     12     0.24          91.3333             0.0372              1622.29                     64.8917
6     12     0.24          91.3333             0.0396              2670.94                     83.2639
6     12     0.24          91.3333             0.042              3916.86                     100.831
6     12     0.24          91.3333             0.0444              5092.7                     114.974
6     12     0.24          91.3333             0.0468              6374.96                     128.636
6     12     0.24          91.3333             0.0492              8111.47                     145.102
6     12     0.24          91.3333             0.0516              9494.96                     156.99
6     12     0.24          91.3333             0.054              11187.3                     170.407
6     12     0.24          91.3333             0.0564              12729.2                     181.771
6     12     0.24          91.3333             0.0588              13378.1                     186.347
6     12     0.24          91.3333             0.0612              14055.5                     191.007
6     12     0.24          91.3333             0.0636              14932.9                     196.878
6     12     0.24          91.3333             0.066              14540.9                     194.277
6     12     0.24          91.3333             0.0684              14032.2                     190.848
6     12     0.24          91.3333             0.0708              14359.2                     193.059
6     12     0.24          91.3333             0.0732              13918                     190.07
6     12     0.24          91.3333             0.0756              13507.9                     187.248
6     12     0.24          91.3333             0.078              13380.7                     186.365
6     12     0.24          91.3333             0.0804              12923.8                     183.156
6     12     0.24          91.3333             0.0828              12041.3                     176.792
6     12     0.24          91.3333             0.0852              11753.2                     174.664
6     12     0.24          91.3333             0.0876              11446.9                     172.373
6     12     0.24          91.3333             0.09              11106.9                     169.793
6     12     0.24          91.3333             0.0924              10403.4                     164.329
6     12     0.24          91.3333             0.0948              10097.2                     161.892
6     12     0.24          91.3333             0.0972              9484.57                     156.904
6     12     0.24          91.3333             0.0996              8633.19                     149.696
6     12     0.24          91.3333             0.102              8082.91                     144.847
6     12     0.24          91.3333             0.1044              7729.9                     141.648
6     12     0.24          91.3333             0.1068              7184.81                     136.563
6     12     0.24          91.3333             0.1092              6956.39                     134.374
6     12     0.24          91.3333             0.1116              6151.74                     126.364
6     12     0.24          91.3333             0.114              5718.26                     121.831
6     12     0.24          91.3333             0.1164              5614.43                     120.72
6     12     0.24          91.3333             0.1188              4827.94                     111.945
6     12     0.24          91.3333             0.1212              4308.81                     105.756
6     12     0.24          91.3333             0.1236              3896.1                     100.563
6     12     0.24          91.3333             0.126              3722.19                     98.2933
6     12     0.24          91.3333             0.1284              3055.1                     89.0507
6     12     0.24          91.3333             0.1308              2816.3                     85.4996
6     12     0.24          91.3333             0.1332              2312.74                     77.4797
6     12     0.24          91.3333             0.1356              2060.96                     73.1408
6     12     0.24          91.3333             0.138              1669.02                     65.8195
6     12     0.24          91.3333             0.1404              1591.14                     64.2657
6     12     0.24          91.3333             0.1428              1116.14                     53.8249
6     12     0.24          91.3333             0.1452              944.823                     49.5222
6     12     0.24          91.3333             0.1476              711.213                     42.966
6     12     0.24          91.3333             0.15              464.625                     34.7277
6     12     0.24          91.3333             0.1524              381.563                     31.4708
6     12     0.24          91.3333             0.1548              210.249                     23.361
6     12     0.24          91.3333             0.1572              194.675                     22.4792
6     12     0.24          91.3333             0.1596              176.505                     21.4044
6     12     0.24          91.3333             0.162              189.484                     22.1774
6     12     0.24          91.3333             0.1644              158.336                     20.2728
6     12     0.24          91.3333             0.1668              179.101                     21.5612
6     12     0.24          91.3333             0.1692              166.123                     20.7654
6     12     0.24          91.3333             0.1716              106.422                     16.6204
6     12     0.24          91.3333             0.174              176.505                     21.4044
6     12     0.24          91.3333             0.1764              147.953                     19.5969
6     12     0.24          91.3333             0.1788              134.975                     18.7176
6     12     0.24          91.3333             0.1812              140.166                     19.0742
6     12     0.24          91.3333             0.1836              153.144                     19.9377
6     12     0.24          91.3333             0.186              166.123                     20.7654
6     12     0.24          91.3333             0.1884              127.188                     18.1697
6     12     0.24          91.3333             0.1908              140.166                     19.0742
6     12     0.24          91.3333             0.1932              134.975                     18.7176
6     12     0.24          91.3333             0.1956              160.931                     20.4383
6     12     0.24          91.3333             0.198              129.783                     18.3542
6     12     0.24          91.3333             0.2004              15.574                     6.35806
6     12     0.24          91.3333             0.2028              0                     0
6     12     0.24          91.3333             0.2052              0                     0
6     12     0.24          91.3333             0.2076              0                     0
6     12     0.24          91.3333             0.21              0                     0
6     12     0.24          91.3333             0.2124              0                     0
6     12     0.24          91.3333             0.2148              0                     0
6     12     0.24          91.3333             0.2172              0                     0
6     12     0.24          91.3333             0.2196              0                     0
6     12     0.24          91.3333             0.222              0                     0
6     12     0.24          91.3333             0.2244              0                     0
6     12     0.24          91.3333             0.2268              0                     0
6     12     0.24          91.3333             0.2292              0                     0
6     12     0.24          91.3333             0.2316              0                     0
6     12     0.24          91.3333             0.234              0                     0
6     12     0.24          91.3333             0.2364              0                     0
*******************************************************************************************************
 Average angle 91.3044 +- 0.240833 deg 
 Average E' 0.158109 +- 0.000417045 GeV 
