*******************************************************************************************************
Z     A     E(GeV)     Theta(deg)     Energy Loss(GeV)     Sigma(#mub/sr/GeV)     ERROR     Citation     
*******************************************************************************************************
6     12     0.4          128.333             0.002              0                     0
6     12     0.4          128.333             0.006              0                     0
6     12     0.4          128.333             0.01              0                     0
6     12     0.4          128.333             0.014              0                     0
6     12     0.4          128.333             0.018              0                     0
6     12     0.4          128.333             0.022              0                     0
6     12     0.4          128.333             0.026              0                     0
6     12     0.4          128.333             0.03              0                     0
6     12     0.4          128.333             0.034              0                     0
6     12     0.4          128.333             0.038              0                     0
6     12     0.4          128.333             0.042              0                     0
6     12     0.4          128.333             0.046              0                     0
6     12     0.4          128.333             0.05              0                     0
6     12     0.4          128.333             0.054              0                     0
6     12     0.4          128.333             0.058              0                     0
6     12     0.4          128.333             0.062              0                     0
6     12     0.4          128.333             0.066              0                     0
6     12     0.4          128.333             0.07              0                     0
6     12     0.4          128.333             0.074              0                     0
6     12     0.4          128.333             0.078              0                     0
6     12     0.4          128.333             0.082              0                     0
6     12     0.4          128.333             0.086              0                     0
6     12     0.4          128.333             0.09              5.35407                     3.7859
6     12     0.4          128.333             0.094              0                     0
6     12     0.4          128.333             0.098              16.0622                     6.55737
6     12     0.4          128.333             0.102              40.1555                     10.3681
6     12     0.4          128.333             0.106              48.1866                     11.3577
6     12     0.4          128.333             0.11              82.9881                     14.9051
6     12     0.4          128.333             0.114              125.821                     18.3528
6     12     0.4          128.333             0.118              107.081                     16.931
6     12     0.4          128.333             0.122              195.423                     22.8726
6     12     0.4          128.333             0.126              222.194                     24.3889
6     12     0.4          128.333             0.13              291.797                     27.9491
6     12     0.4          128.333             0.134              291.797                     27.9491
6     12     0.4          128.333             0.138              329.275                     29.6897
6     12     0.4          128.333             0.142              463.127                     35.2109
6     12     0.4          128.333             0.146              473.835                     35.6156
6     12     0.4          128.333             0.15              567.531                     38.9782
6     12     0.4          128.333             0.154              623.749                     40.8631
6     12     0.4          128.333             0.158              623.749                     40.8631
6     12     0.4          128.333             0.162              789.725                     45.9796
6     12     0.4          128.333             0.166              875.39                     48.4092
6     12     0.4          128.333             0.17              878.067                     48.4831
6     12     0.4          128.333             0.174              971.763                     51.0043
6     12     0.4          128.333             0.178              1014.6                     52.1163
6     12     0.4          128.333             0.182              1135.06                     55.1235
6     12     0.4          128.333             0.186              1188.6                     56.4086
6     12     0.4          128.333             0.19              1159.16                     55.7055
6     12     0.4          128.333             0.194              1086.88                     53.9407
6     12     0.4          128.333             0.198              1132.39                     55.0585
6     12     0.4          128.333             0.202              1052.07                     53.0701
6     12     0.4          128.333             0.206              1073.49                     53.6076
6     12     0.4          128.333             0.21              942.316                     50.2256
6     12     0.4          128.333             0.214              1076.17                     53.6744
6     12     0.4          128.333             0.218              969.086                     50.934
6     12     0.4          128.333             0.222              910.192                     49.3621
6     12     0.4          128.333             0.226              837.912                     47.3616
6     12     0.4          128.333             0.23              733.507                     44.3128
6     12     0.4          128.333             0.234              725.476                     44.0695
6     12     0.4          128.333             0.238              631.78                     41.1254
6     12     0.4          128.333             0.242              580.916                     39.4352
6     12     0.4          128.333             0.246              540.761                     38.0478
6     12     0.4          128.333             0.25              540.761                     38.0478
6     12     0.4          128.333             0.254              487.22                     36.1152
6     12     0.4          128.333             0.258              382.816                     32.0127
6     12     0.4          128.333             0.262              452.419                     34.8014
6     12     0.4          128.333             0.266              329.275                     29.6897
6     12     0.4          128.333             0.27              339.983                     30.1686
6     12     0.4          128.333             0.274              310.536                     28.8325
6     12     0.4          128.333             0.278              315.89                     29.08
6     12     0.4          128.333             0.282              289.12                     27.8206
6     12     0.4          128.333             0.286              334.629                     29.9301
6     12     0.4          128.333             0.29              315.89                     29.08
6     12     0.4          128.333             0.294              323.921                     29.4474
6     12     0.4          128.333             0.298              275.734                     27.1689
6     12     0.4          128.333             0.302              331.952                     29.8102
6     12     0.4          128.333             0.306              331.952                     29.8102
6     12     0.4          128.333             0.31              307.859                     28.708
6     12     0.4          128.333             0.314              409.586                     33.1131
6     12     0.4          128.333             0.318              406.909                     33.0047
6     12     0.4          128.333             0.322              455.096                     34.9043
6     12     0.4          128.333             0.326              562.177                     38.7939
6     12     0.4          128.333             0.33              591.625                     39.797
6     12     0.4          128.333             0.334              655.873                     41.9022
6     12     0.4          128.333             0.338              752.247                     44.8753
6     12     0.4          128.333             0.342              845.943                     47.588
6     12     0.4          128.333             0.346              915.546                     49.507
6     12     0.4          128.333             0.35              1105.62                     54.4038
6     12     0.4          128.333             0.354              1226.08                     57.291
6     12     0.4          128.333             0.358              1309.07                     59.1982
6     12     0.4          128.333             0.362              1491.11                     63.1803
6     12     0.4          128.333             0.366              1552.68                     64.4715
6     12     0.4          128.333             0.37              1758.81                     68.6178
6     12     0.4          128.333             0.374              2021.16                     73.5576
6     12     0.4          128.333             0.378              2055.96                     74.1881
6     12     0.4          128.333             0.382              2259.42                     77.7723
6     12     0.4          128.333             0.386              380.139                     31.9005
6     12     0.4          128.333             0.39              0                     0
6     12     0.4          128.333             0.394              0                     0
*******************************************************************************************************
 Average angle 128.304 +- 0.927406 deg 
 Average E' 0.13175 +- 0.000952311 GeV 
