*******************************************************************************************************
Z     A     E(GeV)     Theta(deg)     Energy Loss(GeV)     Sigma(#mub/sr/GeV)     ERROR     Citation     
*******************************************************************************************************
6     12     0.2          133.333             0.001              47.4824                     13.1693
6     12     0.2          133.333             0.003              51.1349                     13.6664
6     12     0.2          133.333             0.005              62.0924                     15.0596
6     12     0.2          133.333             0.007              94.9648                     18.6241
6     12     0.2          133.333             0.009              76.7024                     16.7378
6     12     0.2          133.333             0.011              69.3974                     15.9208
6     12     0.2          133.333             0.013              84.0073                     17.5167
6     12     0.2          133.333             0.015              105.922                     19.6693
6     12     0.2          133.333             0.017              127.837                     21.6084
6     12     0.2          133.333             0.019              116.88                     20.6616
6     12     0.2          133.333             0.021              87.6598                     17.8935
6     12     0.2          133.333             0.023              124.185                     21.2975
6     12     0.2          133.333             0.025              157.057                     23.951
6     12     0.2          133.333             0.027              149.752                     23.3874
6     12     0.2          133.333             0.029              153.405                     23.6709
6     12     0.2          133.333             0.031              149.752                     23.3874
6     12     0.2          133.333             0.033              204.54                     27.3328
6     12     0.2          133.333             0.035              252.022                     30.3399
6     12     0.2          133.333             0.037              529.611                     43.9818
6     12     0.2          133.333             0.039              752.414                     52.4231
6     12     0.2          133.333             0.041              1154.19                     64.9281
6     12     0.2          133.333             0.043              1552.31                     75.2981
6     12     0.2          133.333             0.045              2012.52                     85.7364
6     12     0.2          133.333             0.047              2509.26                     95.7343
6     12     0.2          133.333             0.049              2885.47                     102.66
6     12     0.2          133.333             0.051              3418.73                     111.745
6     12     0.2          133.333             0.053              4284.37                     125.095
6     12     0.2          133.333             0.055              4861.47                     133.253
6     12     0.2          133.333             0.057              5350.9                     139.8
6     12     0.2          133.333             0.059              5800.16                     145.551
6     12     0.2          133.333             0.061              6055.83                     148.724
6     12     0.2          133.333             0.063              6161.76                     150.019
6     12     0.2          133.333             0.065              6475.87                     153.796
6     12     0.2          133.333             0.067              6629.27                     155.606
6     12     0.2          133.333             0.069              6384.56                     152.707
6     12     0.2          133.333             0.071              6797.29                     157.566
6     12     0.2          133.333             0.073              6636.58                     155.692
6     12     0.2          133.333             0.075              6424.74                     153.187
6     12     0.2          133.333             0.077              6446.65                     153.448
6     12     0.2          133.333             0.079              6150.8                     149.886
6     12     0.2          133.333             0.081              5986.44                     147.87
6     12     0.2          133.333             0.083              5770.94                     145.184
6     12     0.2          133.333             0.085              5938.95                     147.282
6     12     0.2          133.333             0.087              5493.35                     141.649
6     12     0.2          133.333             0.089              5548.14                     142.354
6     12     0.2          133.333             0.091              5164.63                     137.345
6     12     0.2          133.333             0.093              5212.11                     137.975
6     12     0.2          133.333             0.095              4982                     134.895
6     12     0.2          133.333             0.097              4784.77                     132.198
6     12     0.2          133.333             0.099              4379.34                     126.473
6     12     0.2          133.333             0.101              4204.02                     123.916
6     12     0.2          133.333             0.103              4112.71                     122.563
6     12     0.2          133.333             0.105              4017.74                     121.139
6     12     0.2          133.333             0.107              3597.71                     114.632
6     12     0.2          133.333             0.109              3385.86                     111.206
6     12     0.2          133.333             0.111              3542.92                     113.756
6     12     0.2          133.333             0.113              3170.36                     107.609
6     12     0.2          133.333             0.115              2896.43                     102.855
6     12     0.2          133.333             0.117              2867.21                     102.335
6     12     0.2          133.333             0.119              2680.93                     98.9549
6     12     0.2          133.333             0.121              2403.34                     93.692
6     12     0.2          133.333             0.123              2111.14                     87.8119
6     12     0.2          133.333             0.125              2049.05                     86.5109
6     12     0.2          133.333             0.127              1727.63                     79.4365
6     12     0.2          133.333             0.129              1632.66                     77.2224
6     12     0.2          133.333             0.131              1362.38                     70.5414
6     12     0.2          133.333             0.133              1212.63                     66.5516
6     12     0.2          133.333             0.135              880.251                     56.7019
6     12     0.2          133.333             0.137              712.236                     51.0043
6     12     0.2          133.333             0.139              730.499                     51.6541
6     12     0.2          133.333             0.141              566.136                     45.4732
6     12     0.2          133.333             0.143              412.732                     38.8265
6     12     0.2          133.333             0.145              241.065                     29.673
6     12     0.2          133.333             0.147              186.277                     26.084
6     12     0.2          133.333             0.149              113.227                     20.3362
6     12     0.2          133.333             0.151              87.6598                     17.8935
6     12     0.2          133.333             0.153              153.405                     23.6709
6     12     0.2          133.333             0.155              87.6598                     17.8935
6     12     0.2          133.333             0.157              65.7449                     15.4962
6     12     0.2          133.333             0.159              65.7449                     15.4962
6     12     0.2          133.333             0.161              65.7449                     15.4962
6     12     0.2          133.333             0.163              116.88                     20.6616
6     12     0.2          133.333             0.165              73.0499                     16.3344
6     12     0.2          133.333             0.167              76.7024                     16.7378
6     12     0.2          133.333             0.169              105.922                     19.6693
6     12     0.2          133.333             0.171              10.9575                     6.3263
6     12     0.2          133.333             0.173              0                     0
6     12     0.2          133.333             0.175              0                     0
6     12     0.2          133.333             0.177              0                     0
6     12     0.2          133.333             0.179              0                     0
6     12     0.2          133.333             0.181              0                     0
6     12     0.2          133.333             0.183              0                     0
6     12     0.2          133.333             0.185              0                     0
6     12     0.2          133.333             0.187              0                     0
6     12     0.2          133.333             0.189              0                     0
6     12     0.2          133.333             0.191              0                     0
6     12     0.2          133.333             0.193              0                     0
6     12     0.2          133.333             0.195              0                     0
6     12     0.2          133.333             0.197              0                     0
*******************************************************************************************************
 Average angle 133.309 +- 0.560313 deg 
 Average E' 0.117035 +- 0.000491911 GeV 
