*******************************************************************************************************
Z     A     E(GeV)     Theta(deg)     Energy Loss(GeV)     Sigma(#mub/sr/GeV)     ERROR     Citation     
*******************************************************************************************************
6     12     0.16          136             0.0008              36.5535                     11.0213
6     12     0.16          136             0.0024              56.4918                     13.7013
6     12     0.16          136             0.004              46.5227                     12.4337
6     12     0.16          136             0.0056              63.1379                     14.4848
6     12     0.16          136             0.0072              43.1996                     11.9814
6     12     0.16          136             0.0088              86.3992                     16.9443
6     12     0.16          136             0.0104              96.3684                     17.8952
6     12     0.16          136             0.012              69.784                     15.2281
6     12     0.16          136             0.0136              99.6914                     18.2011
6     12     0.16          136             0.0152              99.6914                     18.2011
6     12     0.16          136             0.0168              116.307                     19.6594
6     12     0.16          136             0.0184              99.6914                     18.2011
6     12     0.16          136             0.02              93.0453                     17.5839
6     12     0.16          136             0.0216              129.599                     20.7524
6     12     0.16          136             0.0232              106.338                     18.798
6     12     0.16          136             0.0248              132.922                     21.0168
6     12     0.16          136             0.0264              132.922                     21.0168
6     12     0.16          136             0.028              269.167                     29.9074
6     12     0.16          136             0.0296              438.642                     38.1789
6     12     0.16          136             0.0312              837.408                     52.7517
6     12     0.16          136             0.0328              1339.19                     66.7097
6     12     0.16          136             0.0344              1674.82                     74.6022
6     12     0.16          136             0.036              2449.09                     90.2132
6     12     0.16          136             0.0376              3120.34                     101.828
6     12     0.16          136             0.0392              3927.84                     114.247
6     12     0.16          136             0.0408              4522.67                     122.593
6     12     0.16          136             0.0424              5326.84                     133.046
6     12     0.16          136             0.044              6014.72                     141.376
6     12     0.16          136             0.0456              6875.38                     151.153
6     12     0.16          136             0.0472              7613.1                     159.056
6     12     0.16          136             0.0488              8051.74                     163.574
6     12     0.16          136             0.0504              8948.97                     172.447
6     12     0.16          136             0.052              9530.5                     177.962
6     12     0.16          136             0.0536              9932.59                     181.677
6     12     0.16          136             0.0552              10417.8                     186.061
6     12     0.16          136             0.0568              10620.5                     187.862
6     12     0.16          136             0.0584              10720.2                     188.742
6     12     0.16          136             0.06              10826.5                     189.676
6     12     0.16          136             0.0616              10341.3                     185.377
6     12     0.16          136             0.0632              10235                     184.422
6     12     0.16          136             0.0648              10264.9                     184.691
6     12     0.16          136             0.0664              9942.56                     181.768
6     12     0.16          136             0.068              9872.77                     181.129
6     12     0.16          136             0.0696              9912.65                     181.494
6     12     0.16          136             0.0712              9676.71                     179.321
6     12     0.16          136             0.0728              9483.98                     177.527
6     12     0.16          136             0.0744              8905.77                     172.03
6     12     0.16          136             0.076              8726.32                     170.288
6     12     0.16          136             0.0776              8905.77                     172.03
6     12     0.16          136             0.0792              8616.66                     169.215
6     12     0.16          136             0.0808              8497.03                     168.036
6     12     0.16          136             0.0824              7905.53                     162.082
6     12     0.16          136             0.084              7905.53                     162.082
6     12     0.16          136             0.0856              7460.24                     157.451
6     12     0.16          136             0.0872              7506.76                     157.941
6     12     0.16          136             0.0888              7004.98                     152.571
6     12     0.16          136             0.0904              6802.28                     150.347
6     12     0.16          136             0.092              6320.44                     144.924
6     12     0.16          136             0.0936              6031.33                     141.571
6     12     0.16          136             0.0952              6014.72                     141.376
6     12     0.16          136             0.0968              5715.64                     137.816
6     12     0.16          136             0.0984              5659.15                     137.134
6     12     0.16          136             0.1              5433.18                     134.368
6     12     0.16          136             0.1016              5047.71                     129.514
6     12     0.16          136             0.1032              4781.87                     126.057
6     12     0.16          136             0.1048              4349.87                     120.228
6     12     0.16          136             0.1064              4160.46                     117.581
6     12     0.16          136             0.108              3771.66                     111.953
6     12     0.16          136             0.1096              3668.64                     110.413
6     12     0.16          136             0.1112              3030.62                     100.354
6     12     0.16          136             0.1128              2741.51                     95.4473
6     12     0.16          136             0.1144              2432.47                     89.9067
6     12     0.16          136             0.116              2183.24                     85.1764
6     12     0.16          136             0.1176              1701.4                     75.192
6     12     0.16          136             0.1192              1472.11                     69.9421
6     12     0.16          136             0.1208              983.622                     57.1719
6     12     0.16          136             0.1224              714.455                     48.7254
6     12     0.16          136             0.124              93.0453                     17.5839
6     12     0.16          136             0.1256              0                     0
6     12     0.16          136             0.1272              0                     0
6     12     0.16          136             0.1288              0                     0
6     12     0.16          136             0.1304              0                     0
6     12     0.16          136             0.132              0                     0
6     12     0.16          136             0.1336              0                     0
6     12     0.16          136             0.1352              0                     0
6     12     0.16          136             0.1368              0                     0
6     12     0.16          136             0.1384              0                     0
6     12     0.16          136             0.14              0                     0
6     12     0.16          136             0.1416              0                     0
6     12     0.16          136             0.1432              0                     0
6     12     0.16          136             0.1448              0                     0
6     12     0.16          136             0.1464              0                     0
6     12     0.16          136             0.148              0                     0
6     12     0.16          136             0.1496              0                     0
6     12     0.16          136             0.1512              0                     0
6     12     0.16          136             0.1528              0                     0
6     12     0.16          136             0.1544              0                     0
6     12     0.16          136             0.156              0                     0
6     12     0.16          136             0.1576              0                     0
*******************************************************************************************************
 Average angle 135.972 +- 0.407715 deg 
 Average E' 0.0879209 +- 0.000263632 GeV 
