*******************************************************************************************************
Z     A     E(GeV)     Theta(deg)     Energy Loss(GeV)     Sigma(#mub/sr/GeV)     ERROR     Citation     
*******************************************************************************************************
6     12     0.16          132             0.0008              46.5935                     12.0304
6     12     0.16          132             0.0024              71.4434                     14.897
6     12     0.16          132             0.004              80.7621                     15.8388
6     12     0.16          132             0.0056              49.6998                     12.4249
6     12     0.16          132             0.0072              71.4434                     14.897
6     12     0.16          132             0.0088              65.2309                     14.2346
6     12     0.16          132             0.0104              83.8684                     16.1405
6     12     0.16          132             0.012              96.2933                     17.2948
6     12     0.16          132             0.0136              77.6559                     15.5312
6     12     0.16          132             0.0152              108.718                     18.3767
6     12     0.16          132             0.0168              124.249                     19.6456
6     12     0.16          132             0.0184              121.143                     19.3984
6     12     0.16          132             0.02              124.249                     19.6456
6     12     0.16          132             0.0216              111.824                     18.6374
6     12     0.16          132             0.0232              114.931                     18.8945
6     12     0.16          132             0.0248              114.931                     18.8945
6     12     0.16          132             0.0264              139.781                     20.8373
6     12     0.16          132             0.028              248.499                     27.783
6     12     0.16          132             0.0296              552.91                     41.4423
6     12     0.16          132             0.0312              959.827                     54.6026
6     12     0.16          132             0.0328              1574.86                     69.942
6     12     0.16          132             0.0344              2059.43                     79.9818
6     12     0.16          132             0.036              2888.8                     94.7274
6     12     0.16          132             0.0376              3628.08                     106.159
6     12     0.16          132             0.0392              4482.3                     117.996
6     12     0.16          132             0.0408              4929.6                     123.744
6     12     0.16          132             0.0424              6175.2                     138.498
6     12     0.16          132             0.044              6911.37                     146.521
6     12     0.16          132             0.0456              7579.21                     153.437
6     12     0.16          132             0.0472              8417.9                     161.703
6     12     0.16          132             0.0488              8712.99                     164.513
6     12     0.16          132             0.0504              9498.87                     171.772
6     12     0.16          132             0.052              10213.3                     178.115
6     12     0.16          132             0.0536              10586                     181.336
6     12     0.16          132             0.0552              11089.3                     185.596
6     12     0.16          132             0.0568              11229                     186.762
6     12     0.16          132             0.0584              11465.1                     188.715
6     12     0.16          132             0.06              11114.1                     185.804
6     12     0.16          132             0.0616              11325.3                     187.561
6     12     0.16          132             0.0632              11185.6                     186.4
6     12     0.16          132             0.0648              10623.3                     181.655
6     12     0.16          132             0.0664              11048.9                     185.258
6     12     0.16          132             0.068              10300.3                     178.872
6     12     0.16          132             0.0696              10089.1                     177.028
6     12     0.16          132             0.0712              9971.01                     175.99
6     12     0.16          132             0.0728              9936.85                     175.688
6     12     0.16          132             0.0744              9955.48                     175.852
6     12     0.16          132             0.076              9825.02                     174.696
6     12     0.16          132             0.0776              9539.25                     172.137
6     12     0.16          132             0.0792              9101.27                     168.139
6     12     0.16          132             0.0808              8840.35                     165.711
6     12     0.16          132             0.0824              8492.45                     162.418
6     12     0.16          132             0.084              8402.37                     161.554
6     12     0.16          132             0.0856              7855.67                     156.21
6     12     0.16          132             0.0872              7635.13                     154.002
6     12     0.16          132             0.0888              7336.93                     150.964
6     12     0.16          132             0.0904              7430.11                     151.92
6     12     0.16          132             0.092              6815.08                     145.497
6     12     0.16          132             0.0936              6457.86                     141.632
6     12     0.16          132             0.0952              6516.88                     142.278
6     12     0.16          132             0.0968              5948.44                     135.931
6     12     0.16          132             0.0984              5665.77                     132.662
6     12     0.16          132             0.1              5662.67                     132.626
6     12     0.16          132             0.1016              5106.65                     125.946
6     12     0.16          132             0.1032              4861.26                     122.883
6     12     0.16          132             0.1048              4690.42                     120.704
6     12     0.16          132             0.1064              4382.9                     116.68
6     12     0.16          132             0.108              4100.23                     112.855
6     12     0.16          132             0.1096              3705.74                     107.289
6     12     0.16          132             0.1112              3187                     99.4965
6     12     0.16          132             0.1128              2845.31                     94.0117
6     12     0.16          132             0.1144              2534.69                     88.7318
6     12     0.16          132             0.116              2056.33                     79.9214
6     12     0.16          132             0.1176              1829.57                     75.3862
6     12     0.16          132             0.1192              1512.74                     68.5486
6     12     0.16          132             0.1208              866.64                     51.8844
6     12     0.16          132             0.1224              301.305                     30.5929
6     12     0.16          132             0.124              0                     0
6     12     0.16          132             0.1256              0                     0
6     12     0.16          132             0.1272              0                     0
6     12     0.16          132             0.1288              0                     0
6     12     0.16          132             0.1304              0                     0
6     12     0.16          132             0.132              0                     0
6     12     0.16          132             0.1336              0                     0
6     12     0.16          132             0.1352              0                     0
6     12     0.16          132             0.1368              0                     0
6     12     0.16          132             0.1384              0                     0
6     12     0.16          132             0.14              0                     0
6     12     0.16          132             0.1416              0                     0
6     12     0.16          132             0.1432              0                     0
6     12     0.16          132             0.1448              0                     0
6     12     0.16          132             0.1464              0                     0
6     12     0.16          132             0.148              0                     0
6     12     0.16          132             0.1496              0                     0
6     12     0.16          132             0.1512              0                     0
6     12     0.16          132             0.1528              0                     0
6     12     0.16          132             0.1544              0                     0
6     12     0.16          132             0.156              0                     0
6     12     0.16          132             0.1576              0                     0
*******************************************************************************************************
 Average angle 131.974 +- 0.370401 deg 
 Average E' 0.0884316 +- 0.000248194 GeV 
