*******************************************************************************************************
Z     A     E(GeV)     Theta(deg)     Energy Loss(GeV)     Sigma(#mub/sr/GeV)     ERROR     Citation     
*******************************************************************************************************
6     12     0.32          150             0.0016              0                     0
6     12     0.32          150             0.0048              0                     0
6     12     0.32          150             0.008              0                     0
6     12     0.32          150             0.0112              0                     0
6     12     0.32          150             0.0144              0                     0
6     12     0.32          150             0.0176              0                     0
6     12     0.32          150             0.0208              0                     0
6     12     0.32          150             0.024              0                     0
6     12     0.32          150             0.0272              0                     0
6     12     0.32          150             0.0304              4.69901                     4.69901
6     12     0.32          150             0.0336              0                     0
6     12     0.32          150             0.0368              9.39803                     6.64541
6     12     0.32          150             0.04              4.69901                     4.69901
6     12     0.32          150             0.0432              9.39803                     6.64541
6     12     0.32          150             0.0464              18.7961                     9.39803
6     12     0.32          150             0.0496              4.69901                     4.69901
6     12     0.32          150             0.0528              14.097                     8.13893
6     12     0.32          150             0.056              65.7862                     17.5821
6     12     0.32          150             0.0592              65.7862                     17.5821
6     12     0.32          150             0.0624              108.077                     22.5357
6     12     0.32          150             0.0656              61.0872                     16.9425
6     12     0.32          150             0.0688              126.873                     24.4168
6     12     0.32          150             0.072              112.776                     23.0204
6     12     0.32          150             0.0752              192.66                     30.0884
6     12     0.32          150             0.0784              253.747                     34.5306
6     12     0.32          150             0.0816              319.533                     38.7491
6     12     0.32          150             0.0848              455.804                     46.2799
6     12     0.32          150             0.088              455.804                     46.2799
6     12     0.32          150             0.0912              516.891                     49.2837
6     12     0.32          150             0.0944              639.066                     54.7994
6     12     0.32          150             0.0976              634.367                     54.5976
6     12     0.32          150             0.1008              737.745                     58.8785
6     12     0.32          150             0.104              775.337                     60.3599
6     12     0.32          150             0.1072              935.104                     66.2877
6     12     0.32          150             0.1104              982.094                     67.9328
6     12     0.32          150             0.1136              1151.26                     73.5512
6     12     0.32          150             0.1168              1118.37                     72.4928
6     12     0.32          150             0.12              1076.07                     71.109
6     12     0.32          150             0.1232              1329.82                     79.0496
6     12     0.32          150             0.1264              1442.6                     82.3334
6     12     0.32          150             0.1296              1494.29                     83.7954
6     12     0.32          150             0.1328              1517.78                     84.4516
6     12     0.32          150             0.136              1677.55                     88.7852
6     12     0.32          150             0.1392              1621.16                     87.2803
6     12     0.32          150             0.1424              1367.41                     80.1592
6     12     0.32          150             0.1456              1367.41                     80.1592
6     12     0.32          150             0.1488              1494.29                     83.7954
6     12     0.32          150             0.152              1456.69                     82.7347
6     12     0.32          150             0.1552              1513.08                     84.3208
6     12     0.32          150             0.1584              1611.76                     87.0269
6     12     0.32          150             0.1616              1306.33                     78.3482
6     12     0.32          150             0.1648              1329.82                     79.0496
6     12     0.32          150             0.168              1066.68                     70.7978
6     12     0.32          150             0.1712              1076.07                     71.109
6     12     0.32          150             0.1744              1057.28                     70.4852
6     12     0.32          150             0.1776              958.599                     67.1153
6     12     0.32          150             0.1808              977.395                     67.7701
6     12     0.32          150             0.184              841.123                     62.8685
6     12     0.32          150             0.1872              916.308                     65.6181
6     12     0.32          150             0.1904              704.852                     57.5509
6     12     0.32          150             0.1936              643.765                     55.0005
6     12     0.32          150             0.1968              653.163                     55.4005
6     12     0.32          150             0.2              587.377                     52.5366
6     12     0.32          150             0.2032              624.969                     54.1917
6     12     0.32          150             0.2064              460.503                     46.5179
6     12     0.32          150             0.2096              422.911                     44.5788
6     12     0.32          150             0.2128              343.028                     40.1484
6     12     0.32          150             0.216              338.329                     39.8725
6     12     0.32          150             0.2192              211.456                     31.5219
6     12     0.32          150             0.2224              277.242                     36.0938
6     12     0.32          150             0.2256              173.863                     28.583
6     12     0.32          150             0.2288              220.854                     32.2148
6     12     0.32          150             0.232              244.349                     33.8851
6     12     0.32          150             0.2352              202.058                     30.8135
6     12     0.32          150             0.2384              197.359                     30.4531
6     12     0.32          150             0.2416              173.863                     28.583
6     12     0.32          150             0.2448              187.961                     29.7192
6     12     0.32          150             0.248              187.961                     29.7192
6     12     0.32          150             0.2512              244.349                     33.8851
6     12     0.32          150             0.2544              277.242                     36.0938
6     12     0.32          150             0.2576              234.951                     33.227
6     12     0.32          150             0.2608              324.232                     39.0329
6     12     0.32          150             0.264              328.931                     39.3148
6     12     0.32          150             0.2672              343.028                     40.1484
6     12     0.32          150             0.2704              366.523                     41.5006
6     12     0.32          150             0.2736              385.319                     42.5514
6     12     0.32          150             0.2768              474.6                     47.2245
6     12     0.32          150             0.28              568.581                     51.6891
6     12     0.32          150             0.2832              507.493                     48.8336
6     12     0.32          150             0.2864              690.755                     56.9725
6     12     0.32          150             0.2896              794.133                     61.0872
6     12     0.32          150             0.2928              897.512                     64.9417
6     12     0.32          150             0.296              1155.96                     73.7011
6     12     0.32          150             0.2992              1517.78                     84.4516
6     12     0.32          150             0.3024              1254.64                     76.7825
6     12     0.32          150             0.3056              0                     0
6     12     0.32          150             0.3088              0                     0
6     12     0.32          150             0.312              0                     0
6     12     0.32          150             0.3152              0                     0
*******************************************************************************************************
 Average angle 149.973 +- 1.38003 deg 
 Average E' 0.145551 +- 0.00133934 GeV 
