*******************************************************************************************************
Z     A     E(GeV)     Theta(deg)     Energy Loss(GeV)     Sigma(#mub/sr/GeV)     ERROR     Citation     
*******************************************************************************************************
6     12     0.32          80             0.0016              23.8575                     7.54441
6     12     0.32          80             0.0048              28.629                     8.26449
6     12     0.32          80             0.008              59.6438                     11.9288
6     12     0.32          80             0.0112              45.3293                     10.3993
6     12     0.32          80             0.0144              52.4865                     11.1902
6     12     0.32          80             0.0176              71.5725                     13.0673
6     12     0.32          80             0.0208              100.202                     15.4614
6     12     0.32          80             0.024              128.831                     17.5316
6     12     0.32          80             0.0272              124.059                     17.2039
6     12     0.32          80             0.0304              140.759                     18.3253
6     12     0.32          80             0.0336              159.845                     19.5282
6     12     0.32          80             0.0368              195.632                     21.6039
6     12     0.32          80             0.04              305.376                     26.9917
6     12     0.32          80             0.0432              763.441                     42.6776
6     12     0.32          80             0.0464              1522.11                     60.2609
6     12     0.32          80             0.0496              2316.56                     74.3421
6     12     0.32          80             0.0528              3638.27                     93.1666
6     12     0.32          80             0.056              4835.92                     107.412
6     12     0.32          80             0.0592              5914.28                     118.786
6     12     0.32          80             0.0624              6505.94                     124.586
6     12     0.32          80             0.0656              7326.64                     132.21
6     12     0.32          80             0.0688              7741.76                     135.904
6     12     0.32          80             0.072              8655.51                     143.701
6     12     0.32          80             0.0752              8994.28                     146.486
6     12     0.32          80             0.0784              9688.54                     152.034
6     12     0.32          80             0.0816              10301.7                     156.771
6     12     0.32          80             0.0848              10468.7                     158.037
6     12     0.32          80             0.088              10177.6                     155.824
6     12     0.32          80             0.0912              10087                     155.129
6     12     0.32          80             0.0944              9817.37                     153.042
6     12     0.32          80             0.0976              9588.34                     151.246
6     12     0.32          80             0.1008              9631.28                     151.584
6     12     0.32          80             0.104              9025.3                     146.738
6     12     0.32          80             0.1072              8450.33                     141.987
6     12     0.32          80             0.1104              8400.23                     141.566
6     12     0.32          80             0.1136              7739.38                     135.883
6     12     0.32          80             0.1168              7326.64                     132.21
6     12     0.32          80             0.12              6873.35                     128.055
6     12     0.32          80             0.1232              6307.93                     122.675
6     12     0.32          80             0.1264              5842.71                     118.065
6     12     0.32          80             0.1296              5565.96                     115.235
6     12     0.32          80             0.1328              5010.08                     109.329
6     12     0.32          80             0.136              4881.25                     107.914
6     12     0.32          80             0.1392              4408.87                     102.56
6     12     0.32          80             0.1424              3960.35                     97.2029
6     12     0.32          80             0.1456              3476.04                     91.0657
6     12     0.32          80             0.1488              3192.14                     87.2676
6     12     0.32          80             0.152              2796.1                     81.675
6     12     0.32          80             0.1552              2469.25                     76.753
6     12     0.32          80             0.1584              2037.43                     69.7195
6     12     0.32          80             0.1616              1913.37                     67.5635
6     12     0.32          80             0.1648              1593.68                     61.6614
6     12     0.32          80             0.168              1254.91                     54.7165
6     12     0.32          80             0.1712              1044.96                     49.9301
6     12     0.32          80             0.1744              851.713                     45.0774
6     12     0.32          80             0.1776              610.752                     38.172
6     12     0.32          80             0.1808              508.165                     34.8189
6     12     0.32          80             0.184              388.878                     30.4592
6     12     0.32          80             0.1872              307.762                     27.0969
6     12     0.32          80             0.1904              245.732                     24.2127
6     12     0.32          80             0.1936              264.818                     25.1355
6     12     0.32          80             0.1968              255.275                     24.6784
6     12     0.32          80             0.2              286.29                     26.1346
6     12     0.32          80             0.2032              310.148                     27.2018
6     12     0.32          80             0.2064              288.676                     26.2433
6     12     0.32          80             0.2096              345.934                     28.7283
6     12     0.32          80             0.2128              341.162                     28.5294
6     12     0.32          80             0.216              386.492                     30.3657
6     12     0.32          80             0.2192              398.421                     30.8307
6     12     0.32          80             0.2224              374.563                     29.8934
6     12     0.32          80             0.2256              372.177                     29.798
6     12     0.32          80             0.2288              427.05                     31.9192
6     12     0.32          80             0.232              441.364                     32.4497
6     12     0.32          80             0.2352              515.322                     35.0632
6     12     0.32          80             0.2384              450.907                     32.7987
6     12     0.32          80             0.2416              601.209                     37.8726
6     12     0.32          80             0.2448              558.266                     36.495
6     12     0.32          80             0.248              682.325                     40.3467
6     12     0.32          80             0.2512              684.711                     40.4172
6     12     0.32          80             0.2544              713.34                     41.2535
6     12     0.32          80             0.2576              772.984                     42.9435
6     12     0.32          80             0.2608              920.9                     46.8726
6     12     0.32          80             0.264              985.315                     48.4842
6     12     0.32          80             0.2672              1197.65                     53.4536
6     12     0.32          80             0.2704              1276.38                     55.1826
6     12     0.32          80             0.2736              1429.07                     58.39
6     12     0.32          80             0.2768              1648.55                     62.714
6     12     0.32          80             0.28              1863.27                     66.6731
6     12     0.32          80             0.2832              455.679                     32.9717
6     12     0.32          80             0.2864              0                     0
6     12     0.32          80             0.2896              0                     0
6     12     0.32          80             0.2928              0                     0
6     12     0.32          80             0.296              0                     0
6     12     0.32          80             0.2992              0                     0
6     12     0.32          80             0.3024              0                     0
6     12     0.32          80             0.3056              0                     0
6     12     0.32          80             0.3088              0                     0
6     12     0.32          80             0.312              0                     0
6     12     0.32          80             0.3152              0                     0
*******************************************************************************************************
 Average angle 79.966 +- 0.239828 deg 
 Average E' 0.208927 +- 0.000626599 GeV 
