*******************************************************************************************************
Z     A     E(GeV)     Theta(deg)     Energy Loss(GeV)     Sigma(#mub/sr/GeV)     ERROR     Citation     
*******************************************************************************************************
6     12     0.62          141.5             0.0031              0                     0
6     12     0.62          141.5             0.0093              0                     0
6     12     0.62          141.5             0.0155              0                     0
6     12     0.62          141.5             0.0217              0                     0
6     12     0.62          141.5             0.0279              0                     0
6     12     0.62          141.5             0.0341              0                     0
6     12     0.62          141.5             0.0403              0                     0
6     12     0.62          141.5             0.0465              0                     0
6     12     0.62          141.5             0.0527              0                     0
6     12     0.62          141.5             0.0589              0                     0
6     12     0.62          141.5             0.0651              0                     0
6     12     0.62          141.5             0.0713              0                     0
6     12     0.62          141.5             0.0775              0                     0
6     12     0.62          141.5             0.0837              0                     0
6     12     0.62          141.5             0.0899              0                     0
6     12     0.62          141.5             0.0961              0                     0
6     12     0.62          141.5             0.1023              0                     0
6     12     0.62          141.5             0.1085              0                     0
6     12     0.62          141.5             0.1147              0                     0
6     12     0.62          141.5             0.1209              0                     0
6     12     0.62          141.5             0.1271              0                     0
6     12     0.62          141.5             0.1333              0                     0
6     12     0.62          141.5             0.1395              0                     0
6     12     0.62          141.5             0.1457              0                     0
6     12     0.62          141.5             0.1519              0                     0
6     12     0.62          141.5             0.1581              0                     0
6     12     0.62          141.5             0.1643              0                     0
6     12     0.62          141.5             0.1705              0                     0
6     12     0.62          141.5             0.1767              0                     0
6     12     0.62          141.5             0.1829              0                     0
6     12     0.62          141.5             0.1891              0                     0
6     12     0.62          141.5             0.1953              0                     0
6     12     0.62          141.5             0.2015              0                     0
6     12     0.62          141.5             0.2077              0                     0
6     12     0.62          141.5             0.2139              0                     0
6     12     0.62          141.5             0.2201              0                     0
6     12     0.62          141.5             0.2263              0                     0
6     12     0.62          141.5             0.2325              0                     0
6     12     0.62          141.5             0.2387              0                     0
6     12     0.62          141.5             0.2449              0                     0
6     12     0.62          141.5             0.2511              2.56552                     2.56552
6     12     0.62          141.5             0.2573              7.69656                     4.44361
6     12     0.62          141.5             0.2635              2.56552                     2.56552
6     12     0.62          141.5             0.2697              15.3931                     6.28421
6     12     0.62          141.5             0.2759              7.69656                     4.44361
6     12     0.62          141.5             0.2821              17.9586                     6.78773
6     12     0.62          141.5             0.2883              28.2207                     8.50887
6     12     0.62          141.5             0.2945              33.3518                     9.25011
6     12     0.62          141.5             0.3007              33.3518                     9.25011
6     12     0.62          141.5             0.3069              51.3104                     11.4734
6     12     0.62          141.5             0.3131              51.3104                     11.4734
6     12     0.62          141.5             0.3193              97.4898                     15.8149
6     12     0.62          141.5             0.3255              87.2277                     14.9594
6     12     0.62          141.5             0.3317              87.2277                     14.9594
6     12     0.62          141.5             0.3379              107.752                     16.6265
6     12     0.62          141.5             0.3441              135.973                     18.6773
6     12     0.62          141.5             0.3503              125.71                     17.9586
6     12     0.62          141.5             0.3565              128.276                     18.141
6     12     0.62          141.5             0.3627              125.71                     17.9586
6     12     0.62          141.5             0.3689              105.186                     16.4273
6     12     0.62          141.5             0.3751              123.145                     17.7744
6     12     0.62          141.5             0.3813              133.407                     18.5002
6     12     0.62          141.5             0.3875              130.842                     18.3215
6     12     0.62          141.5             0.3937              120.579                     17.5883
6     12     0.62          141.5             0.3999              120.579                     17.5883
6     12     0.62          141.5             0.4061              102.621                     16.2258
6     12     0.62          141.5             0.4123              100.055                     16.0217
6     12     0.62          141.5             0.4185              102.621                     16.2258
6     12     0.62          141.5             0.4247              115.448                     17.21
6     12     0.62          141.5             0.4309              87.2277                     14.9594
6     12     0.62          141.5             0.4371              120.579                     17.5883
6     12     0.62          141.5             0.4433              130.842                     18.3215
6     12     0.62          141.5             0.4495              123.145                     17.7744
6     12     0.62          141.5             0.4557              169.324                     20.8424
6     12     0.62          141.5             0.4619              179.586                     21.4647
6     12     0.62          141.5             0.4681              189.848                     22.0694
6     12     0.62          141.5             0.4743              248.855                     25.2674
6     12     0.62          141.5             0.4805              218.069                     23.6529
6     12     0.62          141.5             0.4867              274.511                     26.5379
6     12     0.62          141.5             0.4929              256.552                     25.6552
6     12     0.62          141.5             0.4991              256.552                     25.6552
6     12     0.62          141.5             0.5053              315.559                     28.453
6     12     0.62          141.5             0.5115              284.773                     27.0294
6     12     0.62          141.5             0.5177              274.511                     26.5379
6     12     0.62          141.5             0.5239              297.6                     27.6315
6     12     0.62          141.5             0.5301              336.083                     29.3637
6     12     0.62          141.5             0.5363              266.814                     26.1633
6     12     0.62          141.5             0.5425              325.821                     28.9119
6     12     0.62          141.5             0.5487              266.814                     26.1633
6     12     0.62          141.5             0.5549              274.511                     26.5379
6     12     0.62          141.5             0.5611              292.469                     27.3923
6     12     0.62          141.5             0.5673              266.814                     26.1633
6     12     0.62          141.5             0.5735              230.897                     24.3387
6     12     0.62          141.5             0.5797              271.945                     26.4136
6     12     0.62          141.5             0.5859              233.462                     24.4735
6     12     0.62          141.5             0.5921              228.331                     24.2031
6     12     0.62          141.5             0.5983              215.504                     23.5134
6     12     0.62          141.5             0.6045              236.028                     24.6076
6     12     0.62          141.5             0.6107              130.842                     18.3215
*******************************************************************************************************
 Average angle 141.482 +- 2.34924 deg 
 Average E' 0.133085 +- 0.00220981 GeV 
