*******************************************************************************************************
Z     A     E(GeV)     Theta(deg)     Energy Loss(GeV)     Sigma(#mub/sr/GeV)     ERROR     Citation     
*******************************************************************************************************
6     12     0.32          135             0.0016              0                     0
6     12     0.32          135             0.0048              0                     0
6     12     0.32          135             0.008              0                     0
6     12     0.32          135             0.0112              0                     0
6     12     0.32          135             0.0144              0                     0
6     12     0.32          135             0.0176              3.3227                     3.3227
6     12     0.32          135             0.0208              3.3227                     3.3227
6     12     0.32          135             0.024              9.96811                     5.75509
6     12     0.32          135             0.0272              3.3227                     3.3227
6     12     0.32          135             0.0304              6.64541                     4.69901
6     12     0.32          135             0.0336              3.3227                     3.3227
6     12     0.32          135             0.0368              3.3227                     3.3227
6     12     0.32          135             0.04              29.9043                     9.96811
6     12     0.32          135             0.0432              46.5179                     12.4324
6     12     0.32          135             0.0464              46.5179                     12.4324
6     12     0.32          135             0.0496              53.1633                     13.2908
6     12     0.32          135             0.0528              63.1314                     14.4833
6     12     0.32          135             0.056              79.7449                     16.2779
6     12     0.32          135             0.0592              69.7768                     15.2265
6     12     0.32          135             0.0624              159.49                     23.0204
6     12     0.32          135             0.0656              172.781                     23.9604
6     12     0.32          135             0.0688              196.04                     25.5222
6     12     0.32          135             0.072              328.948                     33.0605
6     12     0.32          135             0.0752              358.852                     34.5306
6     12     0.32          135             0.0784              451.888                     38.7491
6     12     0.32          135             0.0816              491.76                     40.4224
6     12     0.32          135             0.0848              531.633                     42.0293
6     12     0.32          135             0.088              647.927                     46.399
6     12     0.32          135             0.0912              814.063                     52.0085
6     12     0.32          135             0.0944              883.839                     54.1917
6     12     0.32          135             0.0976              993.489                     57.4549
6     12     0.32          135             0.1008              1116.43                     60.9062
6     12     0.32          135             0.104              1156.3                     61.9842
6     12     0.32          135             0.1072              1345.7                     66.8681
6     12     0.32          135             0.1104              1485.25                     70.2499
6     12     0.32          135             0.1136              1428.76                     68.9011
6     12     0.32          135             0.1168              1558.35                     71.9578
6     12     0.32          135             0.12              1780.97                     76.9262
6     12     0.32          135             0.1232              1751.07                     76.2776
6     12     0.32          135             0.1264              1890.62                     79.2589
6     12     0.32          135             0.1296              1967.04                     80.8449
6     12     0.32          135             0.1328              1827.49                     77.9243
6     12     0.32          135             0.136              1977.01                     81.0495
6     12     0.32          135             0.1392              1860.71                     78.6295
6     12     0.32          135             0.1424              1857.39                     78.5593
6     12     0.32          135             0.1456              1847.42                     78.3482
6     12     0.32          135             0.1488              1741.1                     76.0602
6     12     0.32          135             0.152              1661.35                     74.2979
6     12     0.32          135             0.1552              1471.96                     69.9348
6     12     0.32          135             0.1584              1378.92                     67.6886
6     12     0.32          135             0.1616              1432.09                     68.9811
6     12     0.32          135             0.1648              1345.7                     66.8681
6     12     0.32          135             0.168              1262.63                     64.7714
6     12     0.32          135             0.1712              1259.3                     64.6861
6     12     0.32          135             0.1744              1212.79                     63.4802
6     12     0.32          135             0.1776              1119.75                     60.9967
6     12     0.32          135             0.1808              1003.46                     57.7424
6     12     0.32          135             0.184              920.389                     55.3008
6     12     0.32          135             0.1872              910.421                     55.0005
6     12     0.32          135             0.1904              794.126                     51.3678
6     12     0.32          135             0.1936              804.094                     51.6891
6     12     0.32          135             0.1968              604.732                     44.8257
6     12     0.32          135             0.2              564.86                     43.3228
6     12     0.32          135             0.2032              564.86                     43.3228
6     12     0.32          135             0.2064              441.92                     38.3193
6     12     0.32          135             0.2096              428.629                     37.7387
6     12     0.32          135             0.2128              302.366                     31.6966
6     12     0.32          135             0.216              275.784                     30.2713
6     12     0.32          135             0.2192              239.235                     28.1941
6     12     0.32          135             0.2224              202.685                     25.9511
6     12     0.32          135             0.2256              209.33                     26.3731
6     12     0.32          135             0.2288              209.33                     26.3731
6     12     0.32          135             0.232              212.653                     26.5816
6     12     0.32          135             0.2352              232.589                     27.7997
6     12     0.32          135             0.2384              192.717                     25.305
6     12     0.32          135             0.2416              182.749                     24.6418
6     12     0.32          135             0.2448              202.685                     25.9511
6     12     0.32          135             0.248              232.589                     27.7997
6     12     0.32          135             0.2512              242.557                     28.3892
6     12     0.32          135             0.2544              295.721                     31.3463
6     12     0.32          135             0.2576              285.753                     30.8135
6     12     0.32          135             0.2608              318.98                     32.5557
6     12     0.32          135             0.264              385.434                     35.7866
6     12     0.32          135             0.2672              345.561                     33.8851
6     12     0.32          135             0.2704              428.629                     37.7387
6     12     0.32          135             0.2736              448.565                     38.6063
6     12     0.32          135             0.2768              415.338                     37.149
6     12     0.32          135             0.28              571.505                     43.5769
6     12     0.32          135             0.2832              684.477                     47.6898
6     12     0.32          135             0.2864              750.931                     49.9512
6     12     0.32          135             0.2896              933.68                     55.6987
6     12     0.32          135             0.2928              1076.56                     59.8087
6     12     0.32          135             0.296              1236.05                     64.086
6     12     0.32          135             0.2992              1545.06                     71.6503
6     12     0.32          135             0.3024              455.21                     38.8913
6     12     0.32          135             0.3056              0                     0
6     12     0.32          135             0.3088              0                     0
6     12     0.32          135             0.312              0                     0
6     12     0.32          135             0.3152              0                     0
*******************************************************************************************************
 Average angle 134.978 +- 0.962536 deg 
 Average E' 0.154168 +- 0.00109938 GeV 
