*******************************************************************************************************
Z     A     E(GeV)     Theta(deg)     Energy Loss(GeV)     Sigma(#mub/sr/GeV)     ERROR     Citation     
*******************************************************************************************************
6     12     0.32          145             0.0016              0                     0
6     12     0.32          145             0.0048              0                     0
6     12     0.32          145             0.008              0                     0
6     12     0.32          145             0.0112              0                     0
6     12     0.32          145             0.0144              4.09624                     4.09624
6     12     0.32          145             0.0176              0                     0
6     12     0.32          145             0.0208              4.09624                     4.09624
6     12     0.32          145             0.024              0                     0
6     12     0.32          145             0.0272              0                     0
6     12     0.32          145             0.0304              0                     0
6     12     0.32          145             0.0336              4.09624                     4.09624
6     12     0.32          145             0.0368              4.09624                     4.09624
6     12     0.32          145             0.04              12.2887                     7.0949
6     12     0.32          145             0.0432              4.09624                     4.09624
6     12     0.32          145             0.0464              12.2887                     7.0949
6     12     0.32          145             0.0496              36.8662                     12.2887
6     12     0.32          145             0.0528              24.5774                     10.0337
6     12     0.32          145             0.056              49.1549                     14.1898
6     12     0.32          145             0.0592              69.6361                     16.8892
6     12     0.32          145             0.0624              90.1173                     19.2131
6     12     0.32          145             0.0656              77.8286                     17.8551
6     12     0.32          145             0.0688              98.3098                     20.0674
6     12     0.32          145             0.072              241.678                     31.4638
6     12     0.32          145             0.0752              270.352                     33.278
6     12     0.32          145             0.0784              303.122                     35.2372
6     12     0.32          145             0.0816              421.913                     41.5723
6     12     0.32          145             0.0848              438.298                     42.3718
6     12     0.32          145             0.088              516.126                     45.9802
6     12     0.32          145             0.0912              573.474                     48.4674
6     12     0.32          145             0.0944              704.553                     53.7217
6     12     0.32          145             0.0976              839.729                     58.6492
6     12     0.32          145             0.1008              892.98                     60.4803
6     12     0.32          145             0.104              802.863                     57.3474
6     12     0.32          145             0.1072              987.194                     63.5907
6     12     0.32          145             0.1104              1134.66                     68.175
6     12     0.32          145             0.1136              1212.49                     70.4744
6     12     0.32          145             0.1168              1261.64                     71.8887
6     12     0.32          145             0.12              1294.41                     72.8164
6     12     0.32          145             0.1232              1359.95                     74.637
6     12     0.32          145             0.1264              1491.03                     78.1513
6     12     0.32          145             0.1296              1499.22                     78.3657
6     12     0.32          145             0.1328              1630.3                     81.7197
6     12     0.32          145             0.136              1564.76                     80.0603
6     12     0.32          145             0.1392              1622.11                     81.5141
6     12     0.32          145             0.1424              1622.11                     81.5141
6     12     0.32          145             0.1456              1654.88                     82.3334
6     12     0.32          145             0.1488              1552.47                     79.7453
6     12     0.32          145             0.152              1519.7                     78.8992
6     12     0.32          145             0.1552              1323.09                     73.6184
6     12     0.32          145             0.1584              1396.82                     75.6419
6     12     0.32          145             0.1616              1187.91                     69.7565
6     12     0.32          145             0.1648              1228.87                     70.949
6     12     0.32          145             0.168              1163.33                     69.0311
6     12     0.32          145             0.1712              1036.35                     65.1547
6     12     0.32          145             0.1744              1163.33                     69.0311
6     12     0.32          145             0.1776              1134.66                     68.175
6     12     0.32          145             0.1808              1081.41                     66.556
6     12     0.32          145             0.184              827.44                     58.2185
6     12     0.32          145             0.1872              847.922                     58.9346
6     12     0.32          145             0.1904              679.976                     52.7764
6     12     0.32          145             0.1936              692.265                     53.2511
6     12     0.32          145             0.1968              639.013                     51.162
6     12     0.32          145             0.2              667.687                     52.2973
6     12     0.32          145             0.2032              532.511                     46.7043
6     12     0.32          145             0.2064              426.009                     41.7736
6     12     0.32          145             0.2096              405.528                     40.7571
6     12     0.32          145             0.2128              364.565                     38.6438
6     12     0.32          145             0.216              286.737                     34.2716
6     12     0.32          145             0.2192              184.331                     27.4784
6     12     0.32          145             0.2224              262.159                     32.7699
6     12     0.32          145             0.2256              155.657                     25.2509
6     12     0.32          145             0.2288              196.62                     28.3796
6     12     0.32          145             0.232              221.197                     30.1011
6     12     0.32          145             0.2352              196.62                     28.3796
6     12     0.32          145             0.2384              163.85                     25.9069
6     12     0.32          145             0.2416              217.101                     29.8211
6     12     0.32          145             0.2448              237.582                     31.196
6     12     0.32          145             0.248              180.235                     27.1714
6     12     0.32          145             0.2512              233.486                     30.9259
6     12     0.32          145             0.2544              286.737                     34.2716
6     12     0.32          145             0.2576              253.967                     32.2538
6     12     0.32          145             0.2608              286.737                     34.2716
6     12     0.32          145             0.264              327.699                     36.6379
6     12     0.32          145             0.2672              307.218                     35.4745
6     12     0.32          145             0.2704              368.662                     38.8603
6     12     0.32          145             0.2736              450.586                     42.9617
6     12     0.32          145             0.2768              413.72                     41.1667
6     12     0.32          145             0.28              524.319                     46.3437
6     12     0.32          145             0.2832              647.206                     51.4889
6     12     0.32          145             0.2864              770.093                     56.1648
6     12     0.32          145             0.2896              917.558                     61.3069
6     12     0.32          145             0.2928              987.194                     63.5907
6     12     0.32          145             0.296              1069.12                     66.1768
6     12     0.32          145             0.2992              1519.7                     78.8992
6     12     0.32          145             0.3024              1261.64                     71.8887
6     12     0.32          145             0.3056              0                     0
6     12     0.32          145             0.3088              0                     0
6     12     0.32          145             0.312              0                     0
6     12     0.32          145             0.3152              0                     0
*******************************************************************************************************
 Average angle 144.97 +- 1.22221 deg 
 Average E' 0.147387 +- 0.00124259 GeV 
