*******************************************************************************************************
Z     A     E(GeV)     Theta(deg)     Energy Loss(GeV)     Sigma(#mub/sr/GeV)     ERROR     Citation     
*******************************************************************************************************
6     12     0.24          86.6667             0.0012              70.1828                     13.5067
6     12     0.24          86.6667             0.0036              109.173                     16.8458
6     12     0.24          86.6667             0.006              90.9777                     15.378
6     12     0.24          86.6667             0.0084              119.571                     17.6297
6     12     0.24          86.6667             0.0108              124.769                     18.0089
6     12     0.24          86.6667             0.0132              150.763                     19.7962
6     12     0.24          86.6667             0.0156              155.962                     20.1346
6     12     0.24          86.6667             0.018              163.76                     20.6318
6     12     0.24          86.6667             0.0204              176.757                     21.4349
6     12     0.24          86.6667             0.0228              179.356                     21.5919
6     12     0.24          86.6667             0.0252              220.946                     23.9649
6     12     0.24          86.6667             0.0276              226.145                     24.2453
6     12     0.24          86.6667             0.03              291.129                     27.5091
6     12     0.24          86.6667             0.0324              649.841                     41.0995
6     12     0.24          86.6667             0.0348              1377.66                     59.8418
6     12     0.24          86.6667             0.0372              2700.74                     83.7867
6     12     0.24          86.6667             0.0396              4265.56                     105.298
6     12     0.24          86.6667             0.042              5830.37                     123.107
6     12     0.24          86.6667             0.0444              7634.33                     140.87
6     12     0.24          86.6667             0.0468              9430.49                     156.567
6     12     0.24          86.6667             0.0492              11075.9                     169.677
6     12     0.24          86.6667             0.0516              13350.3                     186.286
6     12     0.24          86.6667             0.054              14881.4                     196.678
6     12     0.24          86.6667             0.0564              16583.9                     207.624
6     12     0.24          86.6667             0.0588              17701.7                     214.507
6     12     0.24          86.6667             0.0612              17857.6                     215.449
6     12     0.24          86.6667             0.0636              18128                     217.074
6     12     0.24          86.6667             0.066              17774.4                     214.947
6     12     0.24          86.6667             0.0684              17524.9                     213.433
6     12     0.24          86.6667             0.0708              16921.9                     209.729
6     12     0.24          86.6667             0.0732              16669.7                     208.16
6     12     0.24          86.6667             0.0756              16027.7                     204.112
6     12     0.24          86.6667             0.078              15697.6                     201.999
6     12     0.24          86.6667             0.0804              14873.6                     196.626
6     12     0.24          86.6667             0.0828              14826.8                     196.317
6     12     0.24          86.6667             0.0852              13618.1                     188.144
6     12     0.24          86.6667             0.0876              13243.8                     185.541
6     12     0.24          86.6667             0.09              12809.7                     182.475
6     12     0.24          86.6667             0.0924              11918.1                     176.01
6     12     0.24          86.6667             0.0948              11016.1                     169.218
6     12     0.24          86.6667             0.0972              10696.4                     166.745
6     12     0.24          86.6667             0.0996              10088.1                     161.934
6     12     0.24          86.6667             0.102              9568.26                     157.707
6     12     0.24          86.6667             0.1044              9053.58                     153.407
6     12     0.24          86.6667             0.1068              8141.21                     145.472
6     12     0.24          86.6667             0.1092              7709.71                     141.564
6     12     0.24          86.6667             0.1116              6927.3                     134.189
6     12     0.24          86.6667             0.114              6363.24                     128.609
6     12     0.24          86.6667             0.1164              5757.59                     122.336
6     12     0.24          86.6667             0.1188              5245.52                     116.769
6     12     0.24          86.6667             0.1212              4925.79                     113.154
6     12     0.24          86.6667             0.1236              4351.33                     106.352
6     12     0.24          86.6667             0.126              3797.67                     99.3556
6     12     0.24          86.6667             0.1284              3220.61                     91.4961
6     12     0.24          86.6667             0.1308              2776.12                     84.9479
6     12     0.24          86.6667             0.1332              2430.41                     79.4827
6     12     0.24          86.6667             0.1356              2048.3                     72.9676
6     12     0.24          86.6667             0.138              1494.63                     62.3306
6     12     0.24          86.6667             0.1404              1312.68                     58.4134
6     12     0.24          86.6667             0.1428              925.373                     49.0447
6     12     0.24          86.6667             0.1452              798.005                     45.5445
6     12     0.24          86.6667             0.1476              473.084                     35.0673
6     12     0.24          86.6667             0.15              371.709                     31.0839
6     12     0.24          86.6667             0.1524              189.754                     22.209
6     12     0.24          86.6667             0.1548              210.548                     23.3943
6     12     0.24          86.6667             0.1572              187.154                     22.0563
6     12     0.24          86.6667             0.1596              153.362                     19.9661
6     12     0.24          86.6667             0.162              137.766                     18.9237
6     12     0.24          86.6667             0.1644              187.154                     22.0563
6     12     0.24          86.6667             0.1668              135.167                     18.7443
6     12     0.24          86.6667             0.1692              122.17                     17.8203
6     12     0.24          86.6667             0.1716              145.564                     19.4519
6     12     0.24          86.6667             0.174              140.366                     19.1013
6     12     0.24          86.6667             0.1764              129.968                     18.3803
6     12     0.24          86.6667             0.1788              150.763                     19.7962
6     12     0.24          86.6667             0.1812              137.766                     18.9237
6     12     0.24          86.6667             0.1836              163.76                     20.6318
6     12     0.24          86.6667             0.186              142.965                     19.2774
6     12     0.24          86.6667             0.1884              181.955                     21.7478
6     12     0.24          86.6667             0.1908              137.766                     18.9237
6     12     0.24          86.6667             0.1932              207.949                     23.2494
6     12     0.24          86.6667             0.1956              93.5771                     15.5962
6     12     0.24          86.6667             0.198              0                     0
6     12     0.24          86.6667             0.2004              0                     0
6     12     0.24          86.6667             0.2028              0                     0
6     12     0.24          86.6667             0.2052              0                     0
6     12     0.24          86.6667             0.2076              0                     0
6     12     0.24          86.6667             0.21              0                     0
6     12     0.24          86.6667             0.2124              0                     0
6     12     0.24          86.6667             0.2148              0                     0
6     12     0.24          86.6667             0.2172              0                     0
6     12     0.24          86.6667             0.2196              0                     0
6     12     0.24          86.6667             0.222              0                     0
6     12     0.24          86.6667             0.2244              0                     0
6     12     0.24          86.6667             0.2268              0                     0
6     12     0.24          86.6667             0.2292              0                     0
6     12     0.24          86.6667             0.2316              0                     0
6     12     0.24          86.6667             0.234              0                     0
6     12     0.24          86.6667             0.2364              0                     0
*******************************************************************************************************
 Average angle 86.6365 +- 0.208604 deg 
 Average E' 0.160461 +- 0.00038636 GeV 
