*******************************************************************************************************
Z     A     E(GeV)     Theta(deg)     Energy Loss(GeV)     Sigma(#mub/sr/GeV)     ERROR     Citation     
*******************************************************************************************************
6     12     0.48          73.3333             0.0024              0                     0
6     12     0.48          73.3333             0.0072              0                     0
6     12     0.48          73.3333             0.012              0                     0
6     12     0.48          73.3333             0.0168              0                     0
6     12     0.48          73.3333             0.0216              0                     0
6     12     0.48          73.3333             0.0264              0                     0
6     12     0.48          73.3333             0.0312              0                     0
6     12     0.48          73.3333             0.036              0                     0
6     12     0.48          73.3333             0.0408              0                     0
6     12     0.48          73.3333             0.0456              0                     0
6     12     0.48          73.3333             0.0504              0                     0
6     12     0.48          73.3333             0.0552              0                     0
6     12     0.48          73.3333             0.06              11.8571                     4.84066
6     12     0.48          73.3333             0.0648              55.3333                     10.457
6     12     0.48          73.3333             0.0696              152.167                     17.341
6     12     0.48          73.3333             0.0744              225.286                     21.0999
6     12     0.48          73.3333             0.0792              395.238                     27.9476
6     12     0.48          73.3333             0.084              555.31                     33.127
6     12     0.48          73.3333             0.0888              794.429                     39.6225
6     12     0.48          73.3333             0.0936              964.381                     43.6555
6     12     0.48          73.3333             0.0984              1193.62                     48.5677
6     12     0.48          73.3333             0.1032              1359.62                     51.835
6     12     0.48          73.3333             0.108              1547.36                     55.298
6     12     0.48          73.3333             0.1128              1806.24                     59.7451
6     12     0.48          73.3333             0.1176              2161.95                     65.3638
6     12     0.48          73.3333             0.1224              2322.02                     67.7404
6     12     0.48          73.3333             0.1272              2612.52                     71.853
6     12     0.48          73.3333             0.132              2661.93                     72.5292
6     12     0.48          73.3333             0.1368              2952.43                     76.3843
6     12     0.48          73.3333             0.1416              3041.36                     77.5261
6     12     0.48          73.3333             0.1464              2899.07                     75.6909
6     12     0.48          73.3333             0.1512              2997.88                     76.97
6     12     0.48          73.3333             0.156              2922.79                     75.9999
6     12     0.48          73.3333             0.1608              2818.05                     74.6257
6     12     0.48          73.3333             0.1656              2683.67                     72.8247
6     12     0.48          73.3333             0.1704              2442.57                     69.4765
6     12     0.48          73.3333             0.1752              2369.45                     68.4287
6     12     0.48          73.3333             0.18              2233.1                     66.4306
6     12     0.48          73.3333             0.1848              2136.26                     64.9743
6     12     0.48          73.3333             0.1896              1968.29                     62.3675
6     12     0.48          73.3333             0.1944              1853.67                     60.5244
6     12     0.48          73.3333             0.1992              1671.86                     57.4796
6     12     0.48          73.3333             0.204              1592.81                     56.1043
6     12     0.48          73.3333             0.2088              1418.91                     52.9531
6     12     0.48          73.3333             0.2136              1377.41                     52.1729
6     12     0.48          73.3333             0.2184              1276.62                     50.2279
6     12     0.48          73.3333             0.2232              1211.4                     48.9282
6     12     0.48          73.3333             0.228              1108.64                     46.8069
6     12     0.48          73.3333             0.2328              942.643                     43.1607
6     12     0.48          73.3333             0.2376              841.857                     40.7881
6     12     0.48          73.3333             0.2424              770.714                     39.0266
6     12     0.48          73.3333             0.2472              723.286                     37.8068
6     12     0.48          73.3333             0.252              660.048                     36.1162
6     12     0.48          73.3333             0.2568              596.81                     34.3425
6     12     0.48          73.3333             0.2616              630.405                     35.2959
6     12     0.48          73.3333             0.2664              492.072                     31.1838
6     12     0.48          73.3333             0.2712              517.762                     31.9874
6     12     0.48          73.3333             0.276              494.048                     31.2463
6     12     0.48          73.3333             0.2808              498                     31.3711
6     12     0.48          73.3333             0.2856              507.881                     31.6807
6     12     0.48          73.3333             0.2904              602.738                     34.5127
6     12     0.48          73.3333             0.2952              620.524                     35.0182
6     12     0.48          73.3333             0.3              573.095                     33.6533
6     12     0.48          73.3333             0.3048              701.548                     37.2343
6     12     0.48          73.3333             0.3096              703.524                     37.2867
6     12     0.48          73.3333             0.3144              841.857                     40.7881
6     12     0.48          73.3333             0.3192              770.714                     39.0266
6     12     0.48          73.3333             0.324              982.167                     44.0562
6     12     0.48          73.3333             0.3288              948.572                     43.2962
6     12     0.48          73.3333             0.3336              942.643                     43.1607
6     12     0.48          73.3333             0.3384              1276.62                     50.2279
6     12     0.48          73.3333             0.3432              1284.52                     50.3832
6     12     0.48          73.3333             0.348              1329.98                     51.2668
6     12     0.48          73.3333             0.3528              1460.41                     53.7219
6     12     0.48          73.3333             0.3576              1596.76                     56.1739
6     12     0.48          73.3333             0.3624              1614.55                     56.4859
6     12     0.48          73.3333             0.3672              1677.79                     57.5815
6     12     0.48          73.3333             0.372              1859.6                     60.6211
6     12     0.48          73.3333             0.3768              1879.36                     60.9423
6     12     0.48          73.3333             0.3816              1982.12                     62.5863
6     12     0.48          73.3333             0.3864              2049.31                     63.6383
6     12     0.48          73.3333             0.3912              2031.52                     63.3615
6     12     0.48          73.3333             0.396              2124.41                     64.7938
6     12     0.48          73.3333             0.4008              2239.02                     66.5187
6     12     0.48          73.3333             0.4056              2189.62                     65.7807
6     12     0.48          73.3333             0.4104              2233.1                     66.4306
6     12     0.48          73.3333             0.4152              2363.52                     68.3431
6     12     0.48          73.3333             0.42              2191.6                     65.8104
6     12     0.48          73.3333             0.4248              2252.86                     66.7239
6     12     0.48          73.3333             0.4296              2203.45                     65.9882
6     12     0.48          73.3333             0.4344              2302.26                     67.4515
6     12     0.48          73.3333             0.4392              2227.17                     66.3423
6     12     0.48          73.3333             0.444              2140.21                     65.0344
6     12     0.48          73.3333             0.4488              2031.52                     63.3615
6     12     0.48          73.3333             0.4536              43.4762                     9.26916
6     12     0.48          73.3333             0.4584              0                     0
6     12     0.48          73.3333             0.4632              0                     0
6     12     0.48          73.3333             0.468              0                     0
6     12     0.48          73.3333             0.4728              0                     0
*******************************************************************************************************
 Average angle 73.3066 +- 0.292952 deg 
 Average E' 0.216926 +- 0.000866893 GeV 
