*******************************************************************************************************
Z     A     E(GeV)     Theta(deg)     Energy Loss(GeV)     Sigma(#mub/sr/GeV)     ERROR     Citation     
*******************************************************************************************************
6     12     0.4          45.6667             0.002              0                     0
6     12     0.4          45.6667             0.006              11.743                     5.87152
6     12     0.4          45.6667             0.01              0                     0
6     12     0.4          45.6667             0.014              8.80727                     5.08488
6     12     0.4          45.6667             0.018              14.6788                     6.56455
6     12     0.4          45.6667             0.022              14.6788                     6.56455
6     12     0.4          45.6667             0.026              14.6788                     6.56455
6     12     0.4          45.6667             0.03              645.867                     43.5443
6     12     0.4          45.6667             0.034              5812.8                     130.633
6     12     0.4          45.6667             0.038              15362.8                     212.371
6     12     0.4          45.6667             0.042              25872.8                     275.602
6     12     0.4          45.6667             0.046              38112                     334.496
6     12     0.4          45.6667             0.05              50509.7                     385.077
6     12     0.4          45.6667             0.054              61809.4                     425.978
6     12     0.4          45.6667             0.058              69832.9                     452.783
6     12     0.4          45.6667             0.062              71371.2                     457.743
6     12     0.4          45.6667             0.066              69703.7                     452.364
6     12     0.4          45.6667             0.07              67043.9                     443.649
6     12     0.4          45.6667             0.074              63952.5                     433.3
6     12     0.4          45.6667             0.078              60224.1                     420.48
6     12     0.4          45.6667             0.082              55485.8                     403.6
6     12     0.4          45.6667             0.086              52024.6                     390.809
6     12     0.4          45.6667             0.09              47142.4                     372.02
6     12     0.4          45.6667             0.094              43478.6                     357.271
6     12     0.4          45.6667             0.098              39582.8                     340.889
6     12     0.4          45.6667             0.102              36300.6                     326.45
6     12     0.4          45.6667             0.106              32158.3                     307.26
6     12     0.4          45.6667             0.11              28667.7                     290.106
6     12     0.4          45.6667             0.114              25523.5                     273.735
6     12     0.4          45.6667             0.118              22379.3                     256.32
6     12     0.4          45.6667             0.122              19267.4                     237.833
6     12     0.4          45.6667             0.126              16789.6                     222.014
6     12     0.4          45.6667             0.13              13994.8                     202.695
6     12     0.4          45.6667             0.134              11831.1                     186.369
6     12     0.4          45.6667             0.138              9667.45                     168.467
6     12     0.4          45.6667             0.142              8179.02                     154.957
6     12     0.4          45.6667             0.146              6344.17                     136.473
6     12     0.4          45.6667             0.15              4990.79                     121.044
6     12     0.4          45.6667             0.154              3660.89                     103.67
6     12     0.4          45.6667             0.158              2639.25                     88.0238
6     12     0.4          45.6667             0.162              1705.68                     70.7633
6     12     0.4          45.6667             0.166              1168.43                     58.5682
6     12     0.4          45.6667             0.17              731.004                     46.3255
6     12     0.4          45.6667             0.174              490.272                     37.9384
6     12     0.4          45.6667             0.178              546.051                     40.0384
6     12     0.4          45.6667             0.182              575.409                     41.1006
6     12     0.4          45.6667             0.186              607.702                     42.2382
6     12     0.4          45.6667             0.19              631.188                     43.0467
6     12     0.4          45.6667             0.194              648.802                     43.6432
6     12     0.4          45.6667             0.198              789.719                     48.15
6     12     0.4          45.6667             0.202              777.976                     47.7907
6     12     0.4          45.6667             0.206              857.241                     50.1663
6     12     0.4          45.6667             0.21              971.736                     53.4114
6     12     0.4          45.6667             0.214              942.378                     52.5984
6     12     0.4          45.6667             0.218              1018.71                     54.6871
6     12     0.4          45.6667             0.222              1142.01                     57.9022
6     12     0.4          45.6667             0.226              1256.5                     60.7354
6     12     0.4          45.6667             0.23              1321.09                     62.2768
6     12     0.4          45.6667             0.234              1329.9                     62.4841
6     12     0.4          45.6667             0.238              1347.51                     62.8965
6     12     0.4          45.6667             0.242              1532.47                     67.0742
6     12     0.4          45.6667             0.246              1441.46                     65.052
6     12     0.4          45.6667             0.25              1608.8                     68.7243
6     12     0.4          45.6667             0.254              1632.28                     69.2242
6     12     0.4          45.6667             0.258              1784.94                     72.3889
6     12     0.4          45.6667             0.262              1899.44                     74.6745
6     12     0.4          45.6667             0.266              1940.54                     75.4781
6     12     0.4          45.6667             0.27              1987.51                     76.3861
6     12     0.4          45.6667             0.274              2345.67                     82.9839
6     12     0.4          45.6667             0.278              2319.25                     82.5152
6     12     0.4          45.6667             0.282              2639.25                     88.0238
6     12     0.4          45.6667             0.286              2894.66                     92.1847
6     12     0.4          45.6667             0.29              3017.96                     94.1276
6     12     0.4          45.6667             0.294              3335.02                     98.9485
6     12     0.4          45.6667             0.298              3951.53                     107.707
6     12     0.4          45.6667             0.302              4227.49                     111.404
6     12     0.4          45.6667             0.306              4676.66                     117.173
6     12     0.4          45.6667             0.31              4961.43                     120.688
6     12     0.4          45.6667             0.314              4265.66                     111.906
6     12     0.4          45.6667             0.318              2213.56                     80.6132
6     12     0.4          45.6667             0.322              314.126                     30.3677
6     12     0.4          45.6667             0.326              0                     0
6     12     0.4          45.6667             0.33              0                     0
6     12     0.4          45.6667             0.334              0                     0
6     12     0.4          45.6667             0.338              0                     0
6     12     0.4          45.6667             0.342              0                     0
6     12     0.4          45.6667             0.346              0                     0
6     12     0.4          45.6667             0.35              0                     0
6     12     0.4          45.6667             0.354              0                     0
6     12     0.4          45.6667             0.358              0                     0
6     12     0.4          45.6667             0.362              0                     0
6     12     0.4          45.6667             0.366              0                     0
6     12     0.4          45.6667             0.37              0                     0
6     12     0.4          45.6667             0.374              0                     0
6     12     0.4          45.6667             0.378              0                     0
6     12     0.4          45.6667             0.382              0                     0
6     12     0.4          45.6667             0.386              0                     0
6     12     0.4          45.6667             0.39              0                     0
6     12     0.4          45.6667             0.394              0                     0
*******************************************************************************************************
 Average angle 45.6194 +- 0.0727537 deg 
 Average E' 0.307785 +- 0.000490853 GeV 
