*******************************************************************************************************
Z     A     E(GeV)     Theta(deg)     Energy Loss(GeV)     Sigma(#mub/sr/GeV)     ERROR     Citation     
*******************************************************************************************************
6     12     0.2          128.667             0.001              47.6364                     12.7314
6     12     0.2          128.667             0.003              78.2597                     16.3183
6     12     0.2          128.667             0.005              85.0649                     17.013
6     12     0.2          128.667             0.007              74.8571                     15.9596
6     12     0.2          128.667             0.009              115.688                     19.8404
6     12     0.2          128.667             0.011              71.4545                     15.5927
6     12     0.2          128.667             0.013              115.688                     19.8404
6     12     0.2          128.667             0.015              105.48                     18.9449
6     12     0.2          128.667             0.017              129.299                     20.975
6     12     0.2          128.667             0.019              159.922                     23.327
6     12     0.2          128.667             0.021              139.506                     21.7872
6     12     0.2          128.667             0.023              183.74                     25.0039
6     12     0.2          128.667             0.025              176.935                     24.5365
6     12     0.2          128.667             0.027              166.727                     23.8182
6     12     0.2          128.667             0.029              204.156                     26.3564
6     12     0.2          128.667             0.031              207.558                     26.5751
6     12     0.2          128.667             0.033              204.156                     26.3564
6     12     0.2          128.667             0.035              374.286                     35.6867
6     12     0.2          128.667             0.037              666.909                     47.6364
6     12     0.2          128.667             0.039              949.324                     56.8346
6     12     0.2          128.667             0.041              1381.45                     68.5604
6     12     0.2          128.667             0.043              1925.87                     80.9503
6     12     0.2          128.667             0.045              2398.83                     90.3452
6     12     0.2          128.667             0.047              3004.49                     101.109
6     12     0.2          128.667             0.049              3572.73                     110.257
6     12     0.2          128.667             0.051              4249.84                     120.252
6     12     0.2          128.667             0.053              4705.79                     126.538
6     12     0.2          128.667             0.055              5855.87                     141.157
6     12     0.2          128.667             0.057              6223.35                     145.518
6     12     0.2          128.667             0.059              6601.04                     149.869
6     12     0.2          128.667             0.061              6931.09                     153.57
6     12     0.2          128.667             0.063              7063.79                     155.033
6     12     0.2          128.667             0.065              7043.38                     154.809
6     12     0.2          128.667             0.067              7281.56                     157.405
6     12     0.2          128.667             0.069              7152.26                     156.001
6     12     0.2          128.667             0.071              7240.73                     156.963
6     12     0.2          128.667             0.073              7022.96                     154.584
6     12     0.2          128.667             0.075              6798.39                     152.093
6     12     0.2          128.667             0.077              6931.09                     153.57
6     12     0.2          128.667             0.079              6665.69                     150.601
6     12     0.2          128.667             0.081              6437.71                     148.003
6     12     0.2          128.667             0.083              6461.53                     148.277
6     12     0.2          128.667             0.085              6407.09                     147.651
6     12     0.2          128.667             0.087              6124.67                     144.36
6     12     0.2          128.667             0.089              5716.36                     139.465
6     12     0.2          128.667             0.091              5733.38                     139.672
6     12     0.2          128.667             0.093              5416.93                     135.763
6     12     0.2          128.667             0.095              5331.87                     134.693
6     12     0.2          128.667             0.097              5008.62                     130.546
6     12     0.2          128.667             0.099              4651.35                     125.804
6     12     0.2          128.667             0.101              4647.95                     125.758
6     12     0.2          128.667             0.103              4389.35                     122.21
6     12     0.2          128.667             0.105              4317.9                     121.211
6     12     0.2          128.667             0.107              4120.54                     118.408
6     12     0.2          128.667             0.109              3977.64                     116.337
6     12     0.2          128.667             0.111              3337.95                     106.572
6     12     0.2          128.667             0.113              3283.51                     105.7
6     12     0.2          128.667             0.115              3123.58                     103.094
6     12     0.2          128.667             0.117              2953.45                     100.247
6     12     0.2          128.667             0.119              2565.56                     93.4321
6     12     0.2          128.667             0.121              2340.99                     89.2493
6     12     0.2          128.667             0.123              2136.83                     85.2688
6     12     0.2          128.667             0.125              1970.1                     81.8747
6     12     0.2          128.667             0.127              1912.26                     80.6638
6     12     0.2          128.667             0.129              1544.78                     72.5001
6     12     0.2          128.667             0.131              1323.61                     67.1097
6     12     0.2          128.667             0.133              1102.44                     61.2467
6     12     0.2          128.667             0.135              864.26                     54.2285
6     12     0.2          128.667             0.137              775.792                     51.3781
6     12     0.2          128.667             0.139              724.753                     49.6593
6     12     0.2          128.667             0.141              415.117                     37.5829
6     12     0.2          128.667             0.143              306.234                     32.2799
6     12     0.2          128.667             0.145              183.74                     25.0039
6     12     0.2          128.667             0.147              136.104                     21.5199
6     12     0.2          128.667             0.149              68.0519                     15.2169
6     12     0.2          128.667             0.151              115.688                     19.8404
6     12     0.2          128.667             0.153              102.078                     18.6368
6     12     0.2          128.667             0.155              74.8571                     15.9596
6     12     0.2          128.667             0.157              88.4675                     17.3499
6     12     0.2          128.667             0.159              98.6753                     18.3235
6     12     0.2          128.667             0.161              102.078                     18.6368
6     12     0.2          128.667             0.163              81.6623                     16.6693
6     12     0.2          128.667             0.165              81.6623                     16.6693
6     12     0.2          128.667             0.167              98.6753                     18.3235
6     12     0.2          128.667             0.169              64.6493                     14.8316
6     12     0.2          128.667             0.171              0                     0
6     12     0.2          128.667             0.173              0                     0
6     12     0.2          128.667             0.175              0                     0
6     12     0.2          128.667             0.177              0                     0
6     12     0.2          128.667             0.179              0                     0
6     12     0.2          128.667             0.181              0                     0
6     12     0.2          128.667             0.183              0                     0
6     12     0.2          128.667             0.185              0                     0
6     12     0.2          128.667             0.187              0                     0
6     12     0.2          128.667             0.189              0                     0
6     12     0.2          128.667             0.191              0                     0
6     12     0.2          128.667             0.193              0                     0
6     12     0.2          128.667             0.195              0                     0
6     12     0.2          128.667             0.197              0                     0
*******************************************************************************************************
 Average angle 128.643 +- 0.499687 deg 
 Average E' 0.118317 +- 0.000459579 GeV 
