*******************************************************************************************************
Z     A     E(GeV)     Theta(deg)     Energy Loss(GeV)     Sigma(#mub/sr/GeV)     ERROR     Citation     
*******************************************************************************************************
6     12     0.16          176             0.0008              33.092                     33.092
6     12     0.16          176             0.0024              99.2761                     57.3171
6     12     0.16          176             0.004              99.2761                     57.3171
6     12     0.16          176             0.0056              66.184                     46.7992
6     12     0.16          176             0.0072              0                     0
6     12     0.16          176             0.0088              0                     0
6     12     0.16          176             0.0104              66.184                     46.7992
6     12     0.16          176             0.012              99.2761                     57.3171
6     12     0.16          176             0.0136              99.2761                     57.3171
6     12     0.16          176             0.0152              0                     0
6     12     0.16          176             0.0168              165.46                     73.996
6     12     0.16          176             0.0184              132.368                     66.184
6     12     0.16          176             0.02              66.184                     46.7992
6     12     0.16          176             0.0216              99.2761                     57.3171
6     12     0.16          176             0.0232              165.46                     73.996
6     12     0.16          176             0.0248              231.644                     87.5533
6     12     0.16          176             0.0264              132.368                     66.184
6     12     0.16          176             0.028              297.828                     99.2761
6     12     0.16          176             0.0296              198.552                     81.0586
6     12     0.16          176             0.0312              397.104                     114.634
6     12     0.16          176             0.0328              496.38                     128.165
6     12     0.16          176             0.0344              1058.94                     187.197
6     12     0.16          176             0.036              1158.22                     195.775
6     12     0.16          176             0.0376              1786.97                     243.176
6     12     0.16          176             0.0392              2051.71                     260.567
6     12     0.16          176             0.0408              2415.72                     282.738
6     12     0.16          176             0.0424              2779.73                     303.293
6     12     0.16          176             0.044              3673.21                     348.646
6     12     0.16          176             0.0456              3838.67                     356.412
6     12     0.16          176             0.0472              3706.31                     350.213
6     12     0.16          176             0.0488              4599.79                     390.149
6     12     0.16          176             0.0504              4566.7                     388.743
6     12     0.16          176             0.052              5526.37                     427.643
6     12     0.16          176             0.0536              6353.67                     458.536
6     12     0.16          176             0.0552              6353.67                     458.536
6     12     0.16          176             0.0568              6122.02                     450.1
6     12     0.16          176             0.0584              7412.61                     495.276
6     12     0.16          176             0.06              7511.89                     498.582
6     12     0.16          176             0.0616              7180.97                     487.476
6     12     0.16          176             0.0632              6320.58                     457.341
6     12     0.16          176             0.0648              6386.76                     459.729
6     12     0.16          176             0.0664              7478.8                     497.482
6     12     0.16          176             0.068              6088.93                     448.882
6     12     0.16          176             0.0696              6949.32                     479.549
6     12     0.16          176             0.0712              7478.8                     497.482
6     12     0.16          176             0.0728              6188.21                     452.527
6     12     0.16          176             0.0744              6353.67                     458.536
6     12     0.16          176             0.076              7015.51                     481.827
6     12     0.16          176             0.0776              6883.14                     477.26
6     12     0.16          176             0.0792              5923.47                     442.741
6     12     0.16          176             0.0808              5261.63                     417.274
6     12     0.16          176             0.0824              5029.99                     407.986
6     12     0.16          176             0.084              4699.07                     394.337
6     12     0.16          176             0.0856              5096.17                     410.661
6     12     0.16          176             0.0872              5394                     422.491
6     12     0.16          176             0.0888              4831.43                     399.852
6     12     0.16          176             0.0904              4434.33                     383.068
6     12     0.16          176             0.092              3971.04                     362.505
6     12     0.16          176             0.0936              5162.36                     413.319
6     12     0.16          176             0.0952              4368.15                     380.198
6     12     0.16          176             0.0968              4235.78                     374.393
6     12     0.16          176             0.0984              4202.69                     372.928
6     12     0.16          176             0.1              4202.69                     372.928
6     12     0.16          176             0.1016              3706.31                     350.213
6     12     0.16          176             0.1032              4136.5                     369.98
6     12     0.16          176             0.1048              3805.58                     354.872
6     12     0.16          176             0.1064              3408.48                     335.847
6     12     0.16          176             0.108              3143.74                     322.541
6     12     0.16          176             0.1096              2647.36                     295.984
6     12     0.16          176             0.1112              2217.17                     270.87
6     12     0.16          176             0.1128              2978.28                     313.938
6     12     0.16          176             0.1144              2250.26                     272.884
6     12     0.16          176             0.116              1389.86                     214.461
6     12     0.16          176             0.1176              1919.34                     252.021
6     12     0.16          176             0.1192              1323.68                     209.292
6     12     0.16          176             0.1208              1356.77                     211.892
6     12     0.16          176             0.1224              1158.22                     195.775
6     12     0.16          176             0.124              628.748                     144.245
6     12     0.16          176             0.1256              562.564                     136.442
6     12     0.16          176             0.1272              0                     0
6     12     0.16          176             0.1288              99.2761                     57.3171
6     12     0.16          176             0.1304              0                     0
6     12     0.16          176             0.132              0                     0
6     12     0.16          176             0.1336              0                     0
6     12     0.16          176             0.1352              0                     0
6     12     0.16          176             0.1368              0                     0
6     12     0.16          176             0.1384              0                     0
6     12     0.16          176             0.14              0                     0
6     12     0.16          176             0.1416              0                     0
6     12     0.16          176             0.1432              0                     0
6     12     0.16          176             0.1448              0                     0
6     12     0.16          176             0.1464              0                     0
6     12     0.16          176             0.148              0                     0
6     12     0.16          176             0.1496              0                     0
6     12     0.16          176             0.1512              0                     0
6     12     0.16          176             0.1528              0                     0
6     12     0.16          176             0.1544              0                     0
6     12     0.16          176             0.156              0                     0
6     12     0.16          176             0.1576              0                     0
*******************************************************************************************************
 Average angle 175.811 +- 2.01457 deg 
 Average E' 0.0852142 +- 0.000976447 GeV 
