*******************************************************************************************************
Z     A     E(GeV)     Theta(deg)     Energy Loss(GeV)     Sigma(#mub/sr/GeV)     ERROR     Citation     
*******************************************************************************************************
6     12     0.68          66.6667             0.0034              0                     0
6     12     0.68          66.6667             0.0102              0                     0
6     12     0.68          66.6667             0.017              0                     0
6     12     0.68          66.6667             0.0238              0                     0
6     12     0.68          66.6667             0.0306              0                     0
6     12     0.68          66.6667             0.0374              0                     0
6     12     0.68          66.6667             0.0442              0                     0
6     12     0.68          66.6667             0.051              0                     0
6     12     0.68          66.6667             0.0578              0                     0
6     12     0.68          66.6667             0.0646              0                     0
6     12     0.68          66.6667             0.0714              0                     0
6     12     0.68          66.6667             0.0782              0                     0
6     12     0.68          66.6667             0.085              0                     0
6     12     0.68          66.6667             0.0918              0                     0
6     12     0.68          66.6667             0.0986              0                     0
6     12     0.68          66.6667             0.1054              0                     0
6     12     0.68          66.6667             0.1122              1.62708                     1.62708
6     12     0.68          66.6667             0.119              13.0167                     4.60208
6     12     0.68          66.6667             0.1258              55.3208                     9.48744
6     12     0.68          66.6667             0.1326              69.9646                     10.6695
6     12     0.68          66.6667             0.1394              135.048                     14.8234
6     12     0.68          66.6667             0.1462              214.775                     18.6938
6     12     0.68          66.6667             0.153              344.942                     23.6907
6     12     0.68          66.6667             0.1598              362.839                     24.2975
6     12     0.68          66.6667             0.1666              481.616                     27.9934
6     12     0.68          66.6667             0.1734              649.206                     32.5009
6     12     0.68          66.6667             0.1802              727.306                     34.4004
6     12     0.68          66.6667             0.187              735.441                     34.5923
6     12     0.68          66.6667             0.1938              964.86                     39.6221
6     12     0.68          66.6667             0.2006              977.877                     39.8884
6     12     0.68          66.6667             0.2074              1073.87                     41.8005
6     12     0.68          66.6667             0.2142              1231.7                     44.767
6     12     0.68          66.6667             0.221              1304.92                     46.0783
6     12     0.68          66.6667             0.2278              1264.24                     45.3545
6     12     0.68          66.6667             0.2346              1287.02                     45.7612
6     12     0.68          66.6667             0.2414              1221.94                     44.5892
6     12     0.68          66.6667             0.2482              1129.2                     42.8637
6     12     0.68          66.6667             0.255              1161.74                     43.4769
6     12     0.68          66.6667             0.2618              1046.21                     41.2587
6     12     0.68          66.6667             0.2686              1020.18                     40.7421
6     12     0.68          66.6667             0.2754              885.133                     37.9498
6     12     0.68          66.6667             0.2822              930.691                     38.9142
6     12     0.68          66.6667             0.289              811.914                     36.3463
6     12     0.68          66.6667             0.2958              782.627                     35.6847
6     12     0.68          66.6667             0.3026              741.95                     34.745
6     12     0.68          66.6667             0.3094              834.693                     36.8526
6     12     0.68          66.6667             0.3162              764.729                     35.2743
6     12     0.68          66.6667             0.323              738.696                     34.6687
6     12     0.68          66.6667             0.3298              733.814                     34.554
6     12     0.68          66.6667             0.3366              693.137                     33.5826
6     12     0.68          66.6667             0.3434              738.696                     34.6687
6     12     0.68          66.6667             0.3502              732.187                     34.5156
6     12     0.68          66.6667             0.357              733.814                     34.554
6     12     0.68          66.6667             0.3638              811.914                     36.3463
6     12     0.68          66.6667             0.3706              774.491                     35.4988
6     12     0.68          66.6667             0.3774              865.608                     37.5289
6     12     0.68          66.6667             0.3842              839.575                     36.9602
6     12     0.68          66.6667             0.391              885.133                     37.9498
6     12     0.68          66.6667             0.3978              984.385                     40.0209
6     12     0.68          66.6667             0.4046              1054.35                     41.4188
6     12     0.68          66.6667             0.4114              1054.35                     41.4188
6     12     0.68          66.6667             0.4182              1051.1                     41.3548
6     12     0.68          66.6667             0.425              1129.2                     42.8637
6     12     0.68          66.6667             0.4318              1129.2                     42.8637
6     12     0.68          66.6667             0.4386              1184.52                     43.9011
6     12     0.68          66.6667             0.4454              1239.84                     44.9146
6     12     0.68          66.6667             0.4522              1239.84                     44.9146
6     12     0.68          66.6667             0.459              1230.07                     44.7374
6     12     0.68          66.6667             0.4658              1317.94                     46.3076
6     12     0.68          66.6667             0.4726              1288.65                     45.7902
6     12     0.68          66.6667             0.4794              1285.4                     45.7323
6     12     0.68          66.6667             0.4862              1246.35                     45.0323
6     12     0.68          66.6667             0.493              1181.26                     43.8407
6     12     0.68          66.6667             0.4998              1186.14                     43.9312
6     12     0.68          66.6667             0.5066              1095.03                     42.2102
6     12     0.68          66.6667             0.5134              1174.75                     43.7198
6     12     0.68          66.6667             0.5202              1015.3                     40.6445
6     12     0.68          66.6667             0.527              1049.47                     41.3228
6     12     0.68          66.6667             0.5338              945.335                     39.2191
6     12     0.68          66.6667             0.5406              972.995                     39.7887
6     12     0.68          66.6667             0.5474              917.675                     38.6411
6     12     0.68          66.6667             0.5542              916.048                     38.6068
6     12     0.68          66.6667             0.561              844.456                     37.0675
6     12     0.68          66.6667             0.5678              826.558                     36.6726
6     12     0.68          66.6667             0.5746              797.27                     36.017
6     12     0.68          66.6667             0.5814              766.356                     35.3118
6     12     0.68          66.6667             0.5882              807.033                     36.2369
6     12     0.68          66.6667             0.595              699.646                     33.7399
6     12     0.68          66.6667             0.6018              649.206                     32.5009
6     12     0.68          66.6667             0.6086              668.731                     32.9861
6     12     0.68          66.6667             0.6154              707.781                     33.9355
6     12     0.68          66.6667             0.6222              670.358                     33.0262
6     12     0.68          66.6667             0.629              701.273                     33.7791
6     12     0.68          66.6667             0.6358              655.714                     32.6635
6     12     0.68          66.6667             0.6426              732.187                     34.5156
6     12     0.68          66.6667             0.6494              689.883                     33.5037
6     12     0.68          66.6667             0.6562              302.637                     22.1904
6     12     0.68          66.6667             0.663              0                     0
6     12     0.68          66.6667             0.6698              0                     0
*******************************************************************************************************
 Average angle 66.6311 +- 0.323136 deg 
 Average E' 0.279783 +- 0.00135684 GeV 
