*******************************************************************************************************
Z     A     E(GeV)     Theta(deg)     Energy Loss(GeV)     Sigma(#mub/sr/GeV)     ERROR     Citation     
*******************************************************************************************************
6     12     0.24          147.333             0.0012              43.2694                     14.4231
6     12     0.24          147.333             0.0036              38.4617                     13.5983
6     12     0.24          147.333             0.006              67.308                     17.9888
6     12     0.24          147.333             0.0084              52.8848                     15.9454
6     12     0.24          147.333             0.0108              43.2694                     14.4231
6     12     0.24          147.333             0.0132              52.8848                     15.9454
6     12     0.24          147.333             0.0156              72.1157                     18.6202
6     12     0.24          147.333             0.018              86.5388                     20.3974
6     12     0.24          147.333             0.0204              96.1543                     21.5007
6     12     0.24          147.333             0.0228              139.424                     25.8903
6     12     0.24          147.333             0.0252              105.77                     22.5502
6     12     0.24          147.333             0.0276              120.193                     24.0386
6     12     0.24          147.333             0.03              105.77                     22.5502
6     12     0.24          147.333             0.0324              149.039                     26.7682
6     12     0.24          147.333             0.0348              158.655                     27.6182
6     12     0.24          147.333             0.0372              173.078                     28.8463
6     12     0.24          147.333             0.0396              149.039                     26.7682
6     12     0.24          147.333             0.042              192.309                     30.4066
6     12     0.24          147.333             0.0444              206.732                     31.5263
6     12     0.24          147.333             0.0468              322.117                     39.3528
6     12     0.24          147.333             0.0492              432.694                     45.61
6     12     0.24          147.333             0.0516              572.118                     52.446
6     12     0.24          147.333             0.054              870.196                     64.6812
6     12     0.24          147.333             0.0564              1125                     73.5439
6     12     0.24          147.333             0.0588              1480.78                     84.375
6     12     0.24          147.333             0.0612              1591.35                     87.4687
6     12     0.24          147.333             0.0636              1533.66                     85.8685
6     12     0.24          147.333             0.066              1817.32                     93.4726
6     12     0.24          147.333             0.0684              2139.43                     101.419
6     12     0.24          147.333             0.0708              2100.97                     100.503
6     12     0.24          147.333             0.0732              2475.97                     109.104
6     12     0.24          147.333             0.0756              2500.01                     109.633
6     12     0.24          147.333             0.078              2788.47                     115.785
6     12     0.24          147.333             0.0804              2615.4                     112.134
6     12     0.24          147.333             0.0828              3105.78                     122.195
6     12     0.24          147.333             0.0852              2875.01                     117.568
6     12     0.24          147.333             0.0876              3197.13                     123.979
6     12     0.24          147.333             0.09              3302.9                     126.013
6     12     0.24          147.333             0.0924              3144.24                     122.95
6     12     0.24          147.333             0.0948              3331.74                     126.563
6     12     0.24          147.333             0.0972              3100.97                     122.101
6     12     0.24          147.333             0.0996              3423.09                     128.286
6     12     0.24          147.333             0.102              3250.01                     125.001
6     12     0.24          147.333             0.1044              2995.2                     120
6     12     0.24          147.333             0.1068              3033.67                     120.768
6     12     0.24          147.333             0.1092              2807.7                     116.184
6     12     0.24          147.333             0.1116              3033.67                     120.768
6     12     0.24          147.333             0.114              2701.93                     113.974
6     12     0.24          147.333             0.1164              2918.28                     118.449
6     12     0.24          147.333             0.1188              2302.89                     105.222
6     12     0.24          147.333             0.1212              2307.7                     105.332
6     12     0.24          147.333             0.1236              2423.09                     107.933
6     12     0.24          147.333             0.126              2134.62                     101.305
6     12     0.24          147.333             0.1284              2024.05                     98.646
6     12     0.24          147.333             0.1308              1947.12                     96.7533
6     12     0.24          147.333             0.1332              1870.2                     94.8229
6     12     0.24          147.333             0.1356              1817.32                     93.4726
6     12     0.24          147.333             0.138              1524.04                     85.5989
6     12     0.24          147.333             0.1404              1581.74                     87.204
6     12     0.24          147.333             0.1428              1293.27                     78.8523
6     12     0.24          147.333             0.1452              1201.93                     76.0166
6     12     0.24          147.333             0.1476              1062.5                     71.4718
6     12     0.24          147.333             0.15              1024.04                     70.1663
6     12     0.24          147.333             0.1524              923.081                     66.6176
6     12     0.24          147.333             0.1548              807.696                     62.3151
6     12     0.24          147.333             0.1572              697.118                     57.8925
6     12     0.24          147.333             0.1596              745.195                     59.8555
6     12     0.24          147.333             0.162              490.387                     48.5555
6     12     0.24          147.333             0.1644              379.809                     42.7319
6     12     0.24          147.333             0.1668              350.963                     41.0771
6     12     0.24          147.333             0.1692              278.847                     36.6144
6     12     0.24          147.333             0.1716              197.116                     30.7844
6     12     0.24          147.333             0.174              192.309                     30.4066
6     12     0.24          147.333             0.1764              96.1543                     21.5007
6     12     0.24          147.333             0.1788              110.577                     23.057
6     12     0.24          147.333             0.1812              134.616                     25.44
6     12     0.24          147.333             0.1836              120.193                     24.0386
6     12     0.24          147.333             0.186              139.424                     25.8903
6     12     0.24          147.333             0.1884              76.9234                     19.2309
6     12     0.24          147.333             0.1908              139.424                     25.8903
6     12     0.24          147.333             0.1932              105.77                     22.5502
6     12     0.24          147.333             0.1956              81.7311                     19.8227
6     12     0.24          147.333             0.198              139.424                     25.8903
6     12     0.24          147.333             0.2004              86.5388                     20.3974
6     12     0.24          147.333             0.2028              105.77                     22.5502
6     12     0.24          147.333             0.2052              105.77                     22.5502
6     12     0.24          147.333             0.2076              91.3465                     20.9563
6     12     0.24          147.333             0.21              96.1543                     21.5007
6     12     0.24          147.333             0.2124              96.1543                     21.5007
6     12     0.24          147.333             0.2148              81.7311                     19.8227
6     12     0.24          147.333             0.2172              43.2694                     14.4231
6     12     0.24          147.333             0.2196              0                     0
6     12     0.24          147.333             0.222              0                     0
6     12     0.24          147.333             0.2244              0                     0
6     12     0.24          147.333             0.2268              0                     0
6     12     0.24          147.333             0.2292              0                     0
6     12     0.24          147.333             0.2316              0                     0
6     12     0.24          147.333             0.234              0                     0
6     12     0.24          147.333             0.2364              0                     0
*******************************************************************************************************
 Average angle 147.309 +- 1.00027 deg 
 Average E' 0.137177 +- 0.000931478 GeV 
