*******************************************************************************************************
Z     A     E(GeV)     Theta(deg)     Energy Loss(GeV)     Sigma(#mub/sr/GeV)     ERROR     Citation     
*******************************************************************************************************
6     12     0.56          45             0.0028              0                     0
6     12     0.56          45             0.0084              0                     0
6     12     0.56          45             0.014              0                     0
6     12     0.56          45             0.0196              0                     0
6     12     0.56          45             0.0252              0                     0
6     12     0.56          45             0.0308              0                     0
6     12     0.56          45             0.0364              0                     0
6     12     0.56          45             0.042              179.348                     20.8487
6     12     0.56          45             0.0476              1997.06                     69.5709
6     12     0.56          45             0.0532              5441.02                     114.834
6     12     0.56          45             0.0588              9156.42                     148.969
6     12     0.56          45             0.0644              12081.7                     171.118
6     12     0.56          45             0.07              14439.9                     187.074
6     12     0.56          45             0.0756              16647.8                     200.868
6     12     0.56          45             0.0812              18836.3                     213.663
6     12     0.56          45             0.0868              20862.5                     224.861
6     12     0.56          45             0.0924              22229.4                     232.111
6     12     0.56          45             0.098              23550.3                     238.908
6     12     0.56          45             0.1036              22920.1                     235.69
6     12     0.56          45             0.1092              22001.6                     230.919
6     12     0.56          45             0.1148              21114.5                     226.216
6     12     0.56          45             0.1204              19650.7                     218.233
6     12     0.56          45             0.126              18140.8                     209.681
6     12     0.56          45             0.1316              16691.4                     201.131
6     12     0.56          45             0.1372              15380.3                     193.07
6     12     0.56          45             0.1428              13489.8                     180.815
6     12     0.56          45             0.1484              11880.6                     169.688
6     12     0.56          45             0.154              10879.6                     162.382
6     12     0.56          45             0.1596              9376.97                     150.752
6     12     0.56          45             0.1652              8405.1                     142.726
6     12     0.56          45             0.1708              7205.41                     132.148
6     12     0.56          45             0.1764              6177.8                     122.363
6     12     0.56          45             0.182              5327.11                     113.626
6     12     0.56          45             0.1876              4258.29                     101.59
6     12     0.56          45             0.1932              3574.83                     93.0807
6     12     0.56          45             0.1988              2973.78                     84.8958
6     12     0.56          45             0.2044              2379.99                     75.9486
6     12     0.56          45             0.21              1967.98                     69.0624
6     12     0.56          45             0.2156              1517.18                     60.6388
6     12     0.56          45             0.2212              1279.67                     55.6905
6     12     0.56          45             0.2268              1139.1                     52.5427
6     12     0.56          45             0.2324              1063.97                     50.7804
6     12     0.56          45             0.238              1049.43                     50.4322
6     12     0.56          45             0.2436              1180.3                     53.4845
6     12     0.56          45             0.2492              1156.06                     52.9326
6     12     0.56          45             0.2548              1269.97                     55.4791
6     12     0.56          45             0.2604              1415.39                     58.5693
6     12     0.56          45             0.266              1374.19                     57.7106
6     12     0.56          45             0.2716              1628.67                     62.8273
6     12     0.56          45             0.2772              1616.55                     62.5931
6     12     0.56          45             0.2828              1834.68                     66.6825
6     12     0.56          45             0.2884              1958.28                     68.8921
6     12     0.56          45             0.294              1960.71                     68.9347
6     12     0.56          45             0.2996              2256.39                     73.9501
6     12     0.56          45             0.3052              2479.36                     77.5178
6     12     0.56          45             0.3108              2578.73                     79.056
6     12     0.56          45             0.3164              3145.85                     87.3175
6     12     0.56          45             0.322              3174.94                     87.7202
6     12     0.56          45             0.3276              3402.76                     90.8129
6     12     0.56          45             0.3332              3696.01                     94.6452
6     12     0.56          45             0.3388              4175.89                     100.602
6     12     0.56          45             0.3444              4556.4                     105.085
6     12     0.56          45             0.35              4932.06                     109.332
6     12     0.56          45             0.3556              4837.54                     108.279
6     12     0.56          45             0.3612              5181.69                     112.064
6     12     0.56          45             0.3668              5472.52                     115.166
6     12     0.56          45             0.3724              5283.48                     113.16
6     12     0.56          45             0.378              5661.57                     117.139
6     12     0.56          45             0.3836              5567.05                     116.157
6     12     0.56          45             0.3892              5979.06                     120.378
6     12     0.56          45             0.3948              5845.76                     119.029
6     12     0.56          45             0.4004              5763.36                     118.187
6     12     0.56          45             0.406              5632.48                     116.837
6     12     0.56          45             0.4116              5719.73                     117.739
6     12     0.56          45             0.4172              5554.93                     116.03
6     12     0.56          45             0.4228              5436.17                     114.783
6     12     0.56          45             0.4284              5285.91                     113.186
6     12     0.56          45             0.434              4956.29                     109.6
6     12     0.56          45             0.4396              5060.51                     110.746
6     12     0.56          45             0.4452              4856.93                     108.496
6     12     0.56          45             0.4508              4534.59                     104.834
6     12     0.56          45             0.4564              4425.52                     103.565
6     12     0.56          45             0.462              4415.83                     103.452
6     12     0.56          45             0.4676              4117.72                     99.8988
6     12     0.56          45             0.4732              4042.59                     98.9833
6     12     0.56          45             0.4788              3696.01                     94.6452
6     12     0.56          45             0.4844              3892.33                     97.1262
6     12     0.56          45             0.49              3582.1                     93.1753
6     12     0.56          45             0.4956              3041.64                     85.859
6     12     0.56          45             0.5012              731.932                     42.118
6     12     0.56          45             0.5068              0                     0
6     12     0.56          45             0.5124              0                     0
6     12     0.56          45             0.518              0                     0
6     12     0.56          45             0.5236              0                     0
6     12     0.56          45             0.5292              0                     0
6     12     0.56          45             0.5348              0                     0
6     12     0.56          45             0.5404              0                     0
6     12     0.56          45             0.546              0                     0
6     12     0.56          45             0.5516              0                     0
*******************************************************************************************************
 Average angle 44.9516 +- 0.0940512 deg 
 Average E' 0.355374 +- 0.000743542 GeV 
