*******************************************************************************************************
Z     A     E(GeV)     Theta(deg)     Energy Loss(GeV)     Sigma(#mub/sr/GeV)     ERROR     Citation     
*******************************************************************************************************
6     12     0.32          110             0.0016              0                     0
6     12     0.32          110             0.0048              10.0012                     5.00059
6     12     0.32          110             0.008              5.00059                     3.53595
6     12     0.32          110             0.0112              7.50088                     4.33063
6     12     0.32          110             0.0144              17.502                     6.61515
6     12     0.32          110             0.0176              15.0018                     6.12444
6     12     0.32          110             0.0208              12.5015                     5.59082
6     12     0.32          110             0.024              30.0035                     8.66127
6     12     0.32          110             0.0272              40.0047                     10.0012
6     12     0.32          110             0.0304              37.5044                     9.68359
6     12     0.32          110             0.0336              57.5067                     11.991
6     12     0.32          110             0.0368              45.0053                     10.6078
6     12     0.32          110             0.04              70.0082                     13.2303
6     12     0.32          110             0.0432              85.01                     14.5791
6     12     0.32          110             0.0464              82.5097                     14.3631
6     12     0.32          110             0.0496              122.514                     17.502
6     12     0.32          110             0.0528              192.523                     21.94
6     12     0.32          110             0.056              282.533                     26.5785
6     12     0.32          110             0.0592              465.054                     34.0994
6     12     0.32          110             0.0624              572.567                     37.8363
6     12     0.32          110             0.0656              745.087                     43.1617
6     12     0.32          110             0.0688              925.108                     48.0941
6     12     0.32          110             0.072              995.117                     49.8807
6     12     0.32          110             0.0752              1177.64                     54.2627
6     12     0.32          110             0.0784              1322.65                     57.5067
6     12     0.32          110             0.0816              1560.18                     62.4573
6     12     0.32          110             0.0848              1730.2                     65.7724
6     12     0.32          110             0.088              2005.23                     70.8073
6     12     0.32          110             0.0912              2100.25                     72.4654
6     12     0.32          110             0.0944              2350.28                     76.6575
6     12     0.32          110             0.0976              2535.3                     79.6177
6     12     0.32          110             0.1008              2680.31                     81.8631
6     12     0.32          110             0.104              2722.82                     82.5097
6     12     0.32          110             0.1072              2980.35                     86.3235
6     12     0.32          110             0.1104              3140.37                     88.6106
6     12     0.32          110             0.1136              3135.37                     88.54
6     12     0.32          110             0.1168              3227.88                     89.8367
6     12     0.32          110             0.12              3247.88                     90.1147
6     12     0.32          110             0.1232              2987.85                     86.4321
6     12     0.32          110             0.1264              3080.36                     87.7599
6     12     0.32          110             0.1296              2915.34                     85.3769
6     12     0.32          110             0.1328              2772.82                     83.2639
6     12     0.32          110             0.136              2737.82                     82.7366
6     12     0.32          110             0.1392              2605.31                     80.7095
6     12     0.32          110             0.1424              2450.29                     78.2715
6     12     0.32          110             0.1456              2420.28                     77.7909
6     12     0.32          110             0.1488              2282.77                     75.5486
6     12     0.32          110             0.152              2055.24                     71.6847
6     12     0.32          110             0.1552              2105.25                     72.5516
6     12     0.32          110             0.1584              1827.71                     67.6004
6     12     0.32          110             0.1616              1767.71                     66.4815
6     12     0.32          110             0.1648              1680.2                     64.815
6     12     0.32          110             0.168              1515.18                     61.5499
6     12     0.32          110             0.1712              1405.16                     59.2733
6     12     0.32          110             0.1744              1270.15                     56.3537
6     12     0.32          110             0.1776              1135.13                     53.2744
6     12     0.32          110             0.1808              1052.62                     51.3017
6     12     0.32          110             0.184              910.107                     47.7025
6     12     0.32          110             0.1872              835.098                     45.6945
6     12     0.32          110             0.1904              670.078                     40.9316
6     12     0.32          110             0.1936              672.579                     41.0079
6     12     0.32          110             0.1968              475.056                     34.4642
6     12     0.32          110             0.2              460.054                     33.9156
6     12     0.32          110             0.2032              390.046                     31.2286
6     12     0.32          110             0.2064              320.037                     28.2876
6     12     0.32          110             0.2096              280.033                     26.4606
6     12     0.32          110             0.2128              247.529                     24.8776
6     12     0.32          110             0.216              265.031                     25.7421
6     12     0.32          110             0.2192              222.526                     23.5877
6     12     0.32          110             0.2224              267.531                     25.8632
6     12     0.32          110             0.2256              235.028                     24.2412
6     12     0.32          110             0.2288              220.026                     23.4548
6     12     0.32          110             0.232              267.531                     25.8632
6     12     0.32          110             0.2352              240.028                     24.4978
6     12     0.32          110             0.2384              250.029                     25.0029
6     12     0.32          110             0.2416              322.538                     28.3979
6     12     0.32          110             0.2448              250.029                     25.0029
6     12     0.32          110             0.248              370.043                     30.4174
6     12     0.32          110             0.2512              302.535                     27.5032
6     12     0.32          110             0.2544              342.54                     29.2652
6     12     0.32          110             0.2576              412.548                     32.1168
6     12     0.32          110             0.2608              475.056                     34.4642
6     12     0.32          110             0.264              460.054                     33.9156
6     12     0.32          110             0.2672              520.061                     36.0597
6     12     0.32          110             0.2704              595.07                     38.5726
6     12     0.32          110             0.2736              685.08                     41.3872
6     12     0.32          110             0.2768              810.095                     45.0053
6     12     0.32          110             0.28              897.605                     47.3738
6     12     0.32          110             0.2832              1065.12                     51.6055
6     12     0.32          110             0.2864              1200.14                     54.7787
6     12     0.32          110             0.2896              1340.16                     57.886
6     12     0.32          110             0.2928              1637.69                     63.9899
6     12     0.32          110             0.296              1415.17                     59.4839
6     12     0.32          110             0.2992              0                     0
6     12     0.32          110             0.3024              0                     0
6     12     0.32          110             0.3056              0                     0
6     12     0.32          110             0.3088              0                     0
6     12     0.32          110             0.312              0                     0
6     12     0.32          110             0.3152              0                     0
*******************************************************************************************************
 Average angle 109.977 +- 0.546832 deg 
 Average E' 0.172333 +- 0.000856882 GeV 
