*******************************************************************************************************
Z     A     E(GeV)     Theta(deg)     Energy Loss(GeV)     Sigma(#mub/sr/GeV)     ERROR     Citation     
*******************************************************************************************************
6     12     1          38.3333             0.005              0                     0
6     12     1          38.3333             0.015              0                     0
6     12     1          38.3333             0.025              0                     0
6     12     1          38.3333             0.035              0                     0
6     12     1          38.3333             0.045              0                     0
6     12     1          38.3333             0.055              0                     0
6     12     1          38.3333             0.065              0                     0
6     12     1          38.3333             0.075              0                     0
6     12     1          38.3333             0.085              5.52289                     3.18864
6     12     1          38.3333             0.095              95.7301                     13.2754
6     12     1          38.3333             0.105              336.896                     24.9041
6     12     1          38.3333             0.115              690.361                     35.6501
6     12     1          38.3333             0.125              1001.48                     42.9383
6     12     1          38.3333             0.135              1594.27                     54.1756
6     12     1          38.3333             0.145              2233.09                     64.1173
6     12     1          38.3333             0.155              2838.76                     72.2915
6     12     1          38.3333             0.165              3299                     77.9317
6     12     1          38.3333             0.175              3842.09                     84.102
6     12     1          38.3333             0.185              4368.6                     89.6796
6     12     1          38.3333             0.195              4797.55                     93.9793
6     12     1          38.3333             0.205              4806.75                     94.0694
6     12     1          38.3333             0.215              4644.75                     92.4706
6     12     1          38.3333             0.225              4438.56                     90.3948
6     12     1          38.3333             0.235              4066.69                     86.5252
6     12     1          38.3333             0.245              3691.13                     82.4332
6     12     1          38.3333             0.255              3615.65                     81.586
6     12     1          38.3333             0.265              3153.57                     76.1945
6     12     1          38.3333             0.275              2882.95                     72.8519
6     12     1          38.3333             0.285              2724.62                     70.8232
6     12     1          38.3333             0.295              2477.94                     67.541
6     12     1          38.3333             0.305              2385.89                     66.2747
6     12     1          38.3333             0.315              2350.91                     65.787
6     12     1          38.3333             0.325              2076.61                     61.83
6     12     1          38.3333             0.335              2150.24                     62.9168
6     12     1          38.3333             0.345              2218.36                     63.9055
6     12     1          38.3333             0.355              2109.74                     62.3214
6     12     1          38.3333             0.365              2115.27                     62.4029
6     12     1          38.3333             0.375              2067.4                     61.6929
6     12     1          38.3333             0.385              2233.09                     64.1173
6     12     1          38.3333             0.395              2360.11                     65.9157
6     12     1          38.3333             0.405              2516.6                     68.0658
6     12     1          38.3333             0.415              2625.21                     69.5192
6     12     1          38.3333             0.425              2671.24                     70.1259
6     12     1          38.3333             0.435              2893.99                     72.9913
6     12     1          38.3333             0.445              3098.34                     75.5244
6     12     1          38.3333             0.455              2991.56                     74.2116
6     12     1          38.3333             0.465              2963.95                     73.8683
6     12     1          38.3333             0.475              3006.29                     74.394
6     12     1          38.3333             0.485              3032.07                     74.7122
6     12     1          38.3333             0.495              2943.7                     73.6155
6     12     1          38.3333             0.505              2945.54                     73.6385
6     12     1          38.3333             0.515              2770.65                     71.4189
6     12     1          38.3333             0.525              2787.22                     71.6321
6     12     1          38.3333             0.535              2538.69                     68.3639
6     12     1          38.3333             0.545              2356.43                     65.8643
6     12     1          38.3333             0.555              2334.34                     65.5548
6     12     1          38.3333             0.565              2301.2                     65.0879
6     12     1          38.3333             0.575              2223.88                     63.985
6     12     1          38.3333             0.585              2074.76                     61.8026
6     12     1          38.3333             0.595              1945.9                     59.8525
6     12     1          38.3333             0.605              1934.85                     59.6824
6     12     1          38.3333             0.615              1886.99                     58.9396
6     12     1          38.3333             0.625              1780.21                     57.2477
6     12     1          38.3333             0.635              1752.6                     56.802
6     12     1          38.3333             0.645              1704.73                     56.0209
6     12     1          38.3333             0.655              1631.09                     54.7976
6     12     1          38.3333             0.665              1610.84                     54.4564
6     12     1          38.3333             0.675              1627.41                     54.7358
6     12     1          38.3333             0.685              1564.82                     53.6728
6     12     1          38.3333             0.695              1588.75                     54.0817
6     12     1          38.3333             0.705              1776.53                     57.1885
6     12     1          38.3333             0.715              1737.87                     56.5628
6     12     1          38.3333             0.725              1680.8                     55.6263
6     12     1          38.3333             0.735              1800.46                     57.5724
6     12     1          38.3333             0.745              1776.53                     57.1885
6     12     1          38.3333             0.755              1866.74                     58.6224
6     12     1          38.3333             0.765              1995.6                     60.6121
6     12     1          38.3333             0.775              1933.01                     59.654
6     12     1          38.3333             0.785              2100.54                     62.1853
6     12     1          38.3333             0.795              1927.49                     59.5687
6     12     1          38.3333             0.805              2091.33                     62.0489
6     12     1          38.3333             0.815              2176.02                     63.2927
6     12     1          38.3333             0.825              2225.72                     64.0115
6     12     1          38.3333             0.835              2148.4                     62.8898
6     12     1          38.3333             0.845              2207.31                     63.7462
6     12     1          38.3333             0.855              2326.98                     65.4513
6     12     1          38.3333             0.865              2299.36                     65.0618
6     12     1          38.3333             0.875              2277.27                     64.7485
6     12     1          38.3333             0.885              2332.5                     65.529
6     12     1          38.3333             0.895              2330.66                     65.5031
6     12     1          38.3333             0.905              2442.96                     67.0626
6     12     1          38.3333             0.915              2406.14                     66.5553
6     12     1          38.3333             0.925              2374.84                     66.1211
6     12     1          38.3333             0.935              2518.44                     68.0907
6     12     1          38.3333             0.945              2507.39                     67.9412
6     12     1          38.3333             0.955              857.889                     39.7409
6     12     1          38.3333             0.965              0                     0
6     12     1          38.3333             0.975              0                     0
6     12     1          38.3333             0.985              0                     0
*******************************************************************************************************
 Average angle 38.2758 +- 0.1139 deg 
 Average E' 0.50302 +- 0.00149687 GeV 
