*******************************************************************************************************
Z     A     E(GeV)     Theta(deg)     Energy Loss(GeV)     Sigma(#mub/sr/GeV)     ERROR     Citation     
*******************************************************************************************************
6     12     0.24          110             0.0012              57.9916                     12.6548
6     12     0.24          110             0.0036              46.9456                     11.386
6     12     0.24          110             0.006              82.8452                     15.1254
6     12     0.24          110             0.0084              88.3682                     15.6214
6     12     0.24          110             0.0108              63.5146                     13.2437
6     12     0.24          110             0.0132              107.699                     17.2456
6     12     0.24          110             0.0156              110.46                     17.4653
6     12     0.24          110             0.018              135.314                     19.3305
6     12     0.24          110             0.0204              135.314                     19.3305
6     12     0.24          110             0.0228              118.745                     18.1084
6     12     0.24          110             0.0252              143.598                     19.9135
6     12     0.24          110             0.0276              151.883                     20.4799
6     12     0.24          110             0.03              171.213                     21.7441
6     12     0.24          110             0.0324              182.259                     22.4346
6     12     0.24          110             0.0348              218.159                     24.5448
6     12     0.24          110             0.0372              281.674                     27.8898
6     12     0.24          110             0.0396              516.401                     37.763
6     12     0.24          110             0.042              919.581                     50.3927
6     12     0.24          110             0.0444              1190.21                     57.3303
6     12     0.24          110             0.0468              2010.38                     74.5095
6     12     0.24          110             0.0492              2504.69                     83.1667
6     12     0.24          110             0.0516              2993.47                     90.9202
6     12     0.24          110             0.054              3846.78                     103.067
6     12     0.24          110             0.0564              4595.14                     112.648
6     12     0.24          110             0.0588              4926.53                     116.639
6     12     0.24          110             0.0612              5266.19                     120.593
6     12     0.24          110             0.0636              5763.26                     126.156
6     12     0.24          110             0.066              6078.07                     129.556
6     12     0.24          110             0.0684              6539.24                     134.381
6     12     0.24          110             0.0708              6682.84                     135.848
6     12     0.24          110             0.0732              7080.5                     139.831
6     12     0.24          110             0.0756              7317.99                     142.157
6     12     0.24          110             0.078              7196.48                     140.972
6     12     0.24          110             0.0804              7022.51                     139.258
6     12     0.24          110             0.0828              7052.88                     139.559
6     12     0.24          110             0.0852              6906.52                     138.103
6     12     0.24          110             0.0876              6583.43                     134.834
6     12     0.24          110             0.09              6580.67                     134.806
6     12     0.24          110             0.0924              6180.25                     130.64
6     12     0.24          110             0.0948              5948.28                     128.165
6     12     0.24          110             0.0972              5959.33                     128.284
6     12     0.24          110             0.0996              5763.26                     126.156
6     12     0.24          110             0.102              5448.45                     122.662
6     12     0.24          110             0.1044              5059.08                     118.198
6     12     0.24          110             0.1068              5152.97                     119.289
6     12     0.24          110             0.1092              4597.91                     112.682
6     12     0.24          110             0.1116              4567.53                     112.309
6     12     0.24          110             0.114              4401.84                     110.253
6     12     0.24          110             0.1164              3990.37                     104.974
6     12     0.24          110             0.1188              3902.01                     103.805
6     12     0.24          110             0.1212              3581.67                     99.4525
6     12     0.24          110             0.1236              3374.56                     96.5343
6     12     0.24          110             0.126              3015.56                     91.2551
6     12     0.24          110             0.1284              2849.87                     88.7127
6     12     0.24          110             0.1308              2427.36                     81.8729
6     12     0.24          110             0.1332              2460.5                     82.4299
6     12     0.24          110             0.1356              2079.41                     75.778
6     12     0.24          110             0.138              1910.96                     72.6439
6     12     0.24          110             0.1404              1618.24                     66.849
6     12     0.24          110             0.1428              1405.61                     62.3024
6     12     0.24          110             0.1452              1325.52                     60.5015
6     12     0.24          110             0.1476              1027.28                     53.262
6     12     0.24          110             0.15              1010.71                     52.8307
6     12     0.24          110             0.1524              742.845                     45.2921
6     12     0.24          110             0.1548              516.401                     37.763
6     12     0.24          110             0.1572              458.41                     35.5795
6     12     0.24          110             0.1596              350.711                     31.1206
6     12     0.24          110             0.162              273.389                     27.4766
6     12     0.24          110             0.1644              187.782                     22.772
6     12     0.24          110             0.1668              149.121                     20.2928
6     12     0.24          110             0.1692              171.213                     21.7441
6     12     0.24          110             0.1716              168.452                     21.568
6     12     0.24          110             0.174              124.268                     18.5247
6     12     0.24          110             0.1764              124.268                     18.5247
6     12     0.24          110             0.1788              118.745                     18.1084
6     12     0.24          110             0.1812              118.745                     18.1084
6     12     0.24          110             0.1836              173.975                     21.9188
6     12     0.24          110             0.186              173.975                     21.9188
6     12     0.24          110             0.1884              93.8912                     16.1022
6     12     0.24          110             0.1908              143.598                     19.9135
6     12     0.24          110             0.1932              129.791                     18.9319
6     12     0.24          110             0.1956              118.745                     18.1084
6     12     0.24          110             0.198              165.69                     21.3905
6     12     0.24          110             0.2004              143.598                     19.9135
6     12     0.24          110             0.2028              149.121                     20.2928
6     12     0.24          110             0.2052              113.222                     17.6823
6     12     0.24          110             0.2076              91.1297                     15.8636
6     12     0.24          110             0.21              8.28452                     4.78307
6     12     0.24          110             0.2124              0                     0
6     12     0.24          110             0.2148              0                     0
6     12     0.24          110             0.2172              0                     0
6     12     0.24          110             0.2196              0                     0
6     12     0.24          110             0.222              0                     0
6     12     0.24          110             0.2244              0                     0
6     12     0.24          110             0.2268              0                     0
6     12     0.24          110             0.2292              0                     0
6     12     0.24          110             0.2316              0                     0
6     12     0.24          110             0.234              0                     0
6     12     0.24          110             0.2364              0                     0
*******************************************************************************************************
 Average angle 109.975 +- 0.402585 deg 
 Average E' 0.148913 +- 0.000545126 GeV 
