*******************************************************************************************************
Z     A     E(GeV)     Theta(deg)     Energy Loss(GeV)     Sigma(#mub/sr/GeV)     ERROR     Citation     
*******************************************************************************************************
6     12     0.48          105.333             0.0024              0                     0
6     12     0.48          105.333             0.0072              0                     0
6     12     0.48          105.333             0.012              0                     0
6     12     0.48          105.333             0.0168              0                     0
6     12     0.48          105.333             0.0216              0                     0
6     12     0.48          105.333             0.0264              0                     0
6     12     0.48          105.333             0.0312              0                     0
6     12     0.48          105.333             0.036              0                     0
6     12     0.48          105.333             0.0408              0                     0
6     12     0.48          105.333             0.0456              0                     0
6     12     0.48          105.333             0.0504              0                     0
6     12     0.48          105.333             0.0552              0                     0
6     12     0.48          105.333             0.06              0                     0
6     12     0.48          105.333             0.0648              0                     0
6     12     0.48          105.333             0.0696              0                     0
6     12     0.48          105.333             0.0744              0                     0
6     12     0.48          105.333             0.0792              0                     0
6     12     0.48          105.333             0.084              0                     0
6     12     0.48          105.333             0.0888              0                     0
6     12     0.48          105.333             0.0936              0                     0
6     12     0.48          105.333             0.0984              0                     0
6     12     0.48          105.333             0.1032              0                     0
6     12     0.48          105.333             0.108              1.96305                     1.96305
6     12     0.48          105.333             0.1128              5.88914                     3.4001
6     12     0.48          105.333             0.1176              23.5566                     6.8002
6     12     0.48          105.333             0.1224              51.0392                     10.0096
6     12     0.48          105.333             0.1272              62.8175                     11.1047
6     12     0.48          105.333             0.132              66.7436                     11.4464
6     12     0.48          105.333             0.1368              104.042                     14.2912
6     12     0.48          105.333             0.1416              143.302                     16.7723
6     12     0.48          105.333             0.1464              200.231                     19.8258
6     12     0.48          105.333             0.1512              215.935                     20.5886
6     12     0.48          105.333             0.156              265.011                     22.8085
6     12     0.48          105.333             0.1608              316.051                     24.9083
6     12     0.48          105.333             0.1656              351.385                     26.2638
6     12     0.48          105.333             0.1704              402.425                     28.1066
6     12     0.48          105.333             0.1752              463.279                     30.1569
6     12     0.48          105.333             0.18              553.579                     32.9652
6     12     0.48          105.333             0.1848              516.281                     31.8353
6     12     0.48          105.333             0.1896              539.838                     32.5535
6     12     0.48          105.333             0.1944              608.545                     34.563
6     12     0.48          105.333             0.1992              734.18                     37.9635
6     12     0.48          105.333             0.204              649.769                     35.7145
6     12     0.48          105.333             0.2088              738.106                     38.0649
6     12     0.48          105.333             0.2136              702.771                     37.1426
6     12     0.48          105.333             0.2184              671.362                     36.3031
6     12     0.48          105.333             0.2232              596.766                     34.2269
6     12     0.48          105.333             0.228              700.808                     37.0907
6     12     0.48          105.333             0.2328              661.547                     36.0368
6     12     0.48          105.333             0.2376              608.545                     34.563
6     12     0.48          105.333             0.2424              598.729                     34.2831
6     12     0.48          105.333             0.2472              630.138                     35.1709
6     12     0.48          105.333             0.252              581.062                     33.7735
6     12     0.48          105.333             0.2568              612.471                     34.6743
6     12     0.48          105.333             0.2616              596.766                     34.2269
6     12     0.48          105.333             0.2664              565.358                     33.314
6     12     0.48          105.333             0.2712              563.395                     33.2561
6     12     0.48          105.333             0.276              496.651                     31.2242
6     12     0.48          105.333             0.2808              535.912                     32.4349
6     12     0.48          105.333             0.2856              482.91                     30.7892
6     12     0.48          105.333             0.2904              488.799                     30.9764
6     12     0.48          105.333             0.2952              431.87                     29.1167
6     12     0.48          105.333             0.3              384.757                     27.4827
6     12     0.48          105.333             0.3048              410.277                     28.3794
6     12     0.48          105.333             0.3096              427.944                     28.984
6     12     0.48          105.333             0.3144              345.496                     26.0428
6     12     0.48          105.333             0.3192              341.57                     25.8944
6     12     0.48          105.333             0.324              359.238                     26.5556
6     12     0.48          105.333             0.3288              425.981                     28.9175
6     12     0.48          105.333             0.3336              396.536                     27.9001
6     12     0.48          105.333             0.3384              459.353                     30.0288
6     12     0.48          105.333             0.3432              431.87                     29.1167
6     12     0.48          105.333             0.348              526.097                     32.1365
6     12     0.48          105.333             0.3528              502.54                     31.4088
6     12     0.48          105.333             0.3576              508.429                     31.5923
6     12     0.48          105.333             0.3624              588.914                     34.001
6     12     0.48          105.333             0.3672              706.697                     37.2462
6     12     0.48          105.333             0.372              696.882                     36.9866
6     12     0.48          105.333             0.3768              728.291                     37.811
6     12     0.48          105.333             0.3816              857.852                     41.0366
6     12     0.48          105.333             0.3864              796.997                     39.5543
6     12     0.48          105.333             0.3912              853.926                     40.9426
6     12     0.48          105.333             0.396              881.408                     41.5962
6     12     0.48          105.333             0.4008              995.265                     44.2013
6     12     0.48          105.333             0.4056              971.708                     43.675
6     12     0.48          105.333             0.4104              1087.53                     46.2046
6     12     0.48          105.333             0.4152              1038.45                     45.1501
6     12     0.48          105.333             0.42              1044.34                     45.2779
6     12     0.48          105.333             0.4248              1103.23                     46.5371
6     12     0.48          105.333             0.4296              1073.79                     45.9118
6     12     0.48          105.333             0.4344              1093.42                     46.3296
6     12     0.48          105.333             0.4392              1187.64                     48.2846
6     12     0.48          105.333             0.444              1185.68                     48.2447
6     12     0.48          105.333             0.4488              1246.54                     49.4672
6     12     0.48          105.333             0.4536              1118.94                     46.8671
6     12     0.48          105.333             0.4584              1136.6                     47.2357
6     12     0.48          105.333             0.4632              602.656                     34.3954
6     12     0.48          105.333             0.468              0                     0
6     12     0.48          105.333             0.4728              0                     0
*******************************************************************************************************
 Average angle 105.313 +- 0.702978 deg 
 Average E' 0.150909 +- 0.00100734 GeV 
