*******************************************************************************************************
Z     A     E(GeV)     Theta(deg)     Energy Loss(GeV)     Sigma(#mub/sr/GeV)     ERROR     Citation     
*******************************************************************************************************
6     12     1          78             0.005              0                     0
6     12     1          78             0.015              0                     0
6     12     1          78             0.025              0                     0
6     12     1          78             0.035              0                     0
6     12     1          78             0.045              0                     0
6     12     1          78             0.055              0                     0
6     12     1          78             0.065              0                     0
6     12     1          78             0.075              0                     0
6     12     1          78             0.085              0                     0
6     12     1          78             0.095              0                     0
6     12     1          78             0.105              0                     0
6     12     1          78             0.115              0                     0
6     12     1          78             0.125              0                     0
6     12     1          78             0.135              0                     0
6     12     1          78             0.145              0                     0
6     12     1          78             0.155              0                     0
6     12     1          78             0.165              0                     0
6     12     1          78             0.175              0                     0
6     12     1          78             0.185              0                     0
6     12     1          78             0.195              0                     0
6     12     1          78             0.205              0                     0
6     12     1          78             0.215              0                     0
6     12     1          78             0.225              0                     0
6     12     1          78             0.235              0                     0
6     12     1          78             0.245              0                     0
6     12     1          78             0.255              0                     0
6     12     1          78             0.265              0                     0
6     12     1          78             0.275              0                     0
6     12     1          78             0.285              1.16734                     1.16734
6     12     1          78             0.295              0                     0
6     12     1          78             0.305              0                     0
6     12     1          78             0.315              0                     0
6     12     1          78             0.325              0                     0
6     12     1          78             0.335              2.33468                     1.65087
6     12     1          78             0.345              5.8367                     2.61025
6     12     1          78             0.355              7.00404                     2.85939
6     12     1          78             0.365              4.66936                     2.33468
6     12     1          78             0.375              23.3468                     5.2205
6     12     1          78             0.385              23.3468                     5.2205
6     12     1          78             0.395              30.3508                     5.95229
6     12     1          78             0.405              45.5262                     7.29003
6     12     1          78             0.415              46.6936                     7.3829
6     12     1          78             0.425              85.2158                     9.97375
6     12     1          78             0.435              80.5464                     9.69665
6     12     1          78             0.445              82.8811                     9.83618
6     12     1          78             0.455              91.0525                     10.3097
6     12     1          78             0.465              78.2117                     9.55509
6     12     1          78             0.475              98.0565                     10.6988
6     12     1          78             0.485              99.2239                     10.7623
6     12     1          78             0.495              124.905                     12.0751
6     12     1          78             0.505              99.2239                     10.7623
6     12     1          78             0.515              102.726                     10.9506
6     12     1          78             0.525              100.391                     10.8255
6     12     1          78             0.535              91.0525                     10.3097
6     12     1          78             0.545              95.7218                     10.5707
6     12     1          78             0.555              87.5505                     10.1095
6     12     1          78             0.565              70.0404                     9.04217
6     12     1          78             0.575              107.395                     11.1967
6     12     1          78             0.585              91.0525                     10.3097
6     12     1          78             0.595              102.726                     10.9506
6     12     1          78             0.605              122.571                     11.9617
6     12     1          78             0.615              112.065                     11.4375
6     12     1          78             0.625              131.909                     12.409
6     12     1          78             0.635              145.917                     13.0513
6     12     1          78             0.645              154.089                     13.4117
6     12     1          78             0.655              150.587                     13.2584
6     12     1          78             0.665              179.77                     14.4863
6     12     1          78             0.675              172.766                     14.2013
6     12     1          78             0.685              198.448                     15.2202
6     12     1          78             0.695              185.607                     14.7196
6     12     1          78             0.705              204.284                     15.4425
6     12     1          78             0.715              232.301                     16.4674
6     12     1          78             0.725              198.448                     15.2202
6     12     1          78             0.735              232.301                     16.4674
6     12     1          78             0.745              212.456                     15.7483
6     12     1          78             0.755              203.117                     15.3983
6     12     1          78             0.765              219.46                     16.0058
6     12     1          78             0.775              217.125                     15.9204
6     12     1          78             0.785              238.137                     16.6729
6     12     1          78             0.795              241.639                     16.7951
6     12     1          78             0.805              248.643                     17.0368
6     12     1          78             0.815              238.137                     16.6729
6     12     1          78             0.825              255.647                     17.275
6     12     1          78             0.835              275.492                     17.933
6     12     1          78             0.845              302.341                     18.7866
6     12     1          78             0.855              339.696                     19.9133
6     12     1          78             0.865              330.357                     19.6377
6     12     1          78             0.875              349.035                     20.1852
6     12     1          78             0.885              373.549                     20.882
6     12     1          78             0.895              357.206                     20.4201
6     12     1          78             0.905              417.908                     22.0871
6     12     1          78             0.915              414.406                     21.9944
6     12     1          78             0.925              451.76                     22.9643
6     12     1          78             0.935              476.275                     23.5791
6     12     1          78             0.945              536.976                     25.0366
6     12     1          78             0.955              571.996                     25.8402
6     12     1          78             0.965              560.323                     25.5751
6     12     1          78             0.975              650.208                     27.5502
6     12     1          78             0.985              455.262                     23.0531
*******************************************************************************************************
 Average angle 77.9525 +- 0.732053 deg 
 Average E' 0.204694 +- 0.00192229 GeV 
