*******************************************************************************************************
Z     A     E(GeV)     Theta(deg)     Energy Loss(GeV)     Sigma(#mub/sr/GeV)     ERROR     Citation     
*******************************************************************************************************
6     12     0.56          66.6             0.0028              0                     0
6     12     0.56          66.6             0.0084              0                     0
6     12     0.56          66.6             0.014              0                     0
6     12     0.56          66.6             0.0196              0                     0
6     12     0.56          66.6             0.0252              0                     0
6     12     0.56          66.6             0.0308              0                     0
6     12     0.56          66.6             0.0364              0                     0
6     12     0.56          66.6             0.042              0                     0
6     12     0.56          66.6             0.0476              0                     0
6     12     0.56          66.6             0.0532              0                     0
6     12     0.56          66.6             0.0588              0                     0
6     12     0.56          66.6             0.0644              0                     0
6     12     0.56          66.6             0.07              3.73467                     2.64081
6     12     0.56          66.6             0.0756              48.5507                     9.52158
6     12     0.56          66.6             0.0812              128.846                     15.5112
6     12     0.56          66.6             0.0868              252.09                     21.6965
6     12     0.56          66.6             0.0924              420.15                     28.01
6     12     0.56          66.6             0.098              633.027                     34.3813
6     12     0.56          66.6             0.1036              849.637                     39.8316
6     12     0.56          66.6             0.1092              1066.25                     44.6211
6     12     0.56          66.6             0.1148              1335.14                     49.9316
6     12     0.56          66.6             0.1204              1484.53                     52.6509
6     12     0.56          66.6             0.126              1787.04                     57.7668
6     12     0.56          66.6             0.1316              2093.28                     62.5209
6     12     0.56          66.6             0.1372              2322.96                     65.8616
6     12     0.56          66.6             0.1428              2528.37                     68.7118
6     12     0.56          66.6             0.1484              2694.56                     70.9342
6     12     0.56          66.6             0.154              2924.25                     73.8955
6     12     0.56          66.6             0.1596              3209.95                     77.4212
6     12     0.56          66.6             0.1652              3258.5                     78.0045
6     12     0.56          66.6             0.1708              3124.05                     76.3783
6     12     0.56          66.6             0.1764              3002.67                     74.8799
6     12     0.56          66.6             0.182              2935.45                     74.0369
6     12     0.56          66.6             0.1876              2733.78                     71.4484
6     12     0.56          66.6             0.1932              2683.36                     70.7865
6     12     0.56          66.6             0.1988              2466.75                     67.8693
6     12     0.56          66.6             0.2044              2287.49                     65.3567
6     12     0.56          66.6             0.21              2136.23                     63.159
6     12     0.56          66.6             0.2156              2082.08                     62.3533
6     12     0.56          66.6             0.2212              1904.68                     59.6379
6     12     0.56          66.6             0.2268              1837.46                     58.576
6     12     0.56          66.6             0.2324              1510.67                     53.1125
6     12     0.56          66.6             0.238              1486.4                     52.684
6     12     0.56          66.6             0.2436              1340.75                     50.0362
6     12     0.56          66.6             0.2492              1238.04                     48.0816
6     12     0.56          66.6             0.2548              1122.27                     45.7783
6     12     0.56          66.6             0.2604              976.616                     42.7044
6     12     0.56          66.6             0.266              1008.36                     43.3929
6     12     0.56          66.6             0.2716              875.78                     40.4398
6     12     0.56          66.6             0.2772              890.719                     40.7832
6     12     0.56          66.6             0.2828              737.597                     37.1125
6     12     0.56          66.6             0.2884              829.097                     39.3472
6     12     0.56          66.6             0.294              774.944                     38.0405
6     12     0.56          66.6             0.2996              773.077                     37.9946
6     12     0.56          66.6             0.3052              752.536                     37.4865
6     12     0.56          66.6             0.3108              866.443                     40.2236
6     12     0.56          66.6             0.3164              881.382                     40.5689
6     12     0.56          66.6             0.322              956.075                     42.253
6     12     0.56          66.6             0.3276              881.382                     40.5689
6     12     0.56          66.6             0.3332              1109.2                     45.5109
6     12     0.56          66.6             0.3388              1097.99                     45.2805
6     12     0.56          66.6             0.3444              1196.96                     47.2771
6     12     0.56          66.6             0.35              1437.85                     51.8164
6     12     0.56          66.6             0.3556              1383.7                     50.8313
6     12     0.56          66.6             0.3612              1553.62                     53.8622
6     12     0.56          66.6             0.3668              1654.46                     55.5826
6     12     0.56          66.6             0.3724              1822.52                     58.3374
6     12     0.56          66.6             0.378              1768.37                     57.4642
6     12     0.56          66.6             0.3836              1962.57                     60.5374
6     12     0.56          66.6             0.3892              2097.02                     62.5766
6     12     0.56          66.6             0.3948              2233.33                     64.5785
6     12     0.56          66.6             0.4004              2115.69                     62.8546
6     12     0.56          66.6             0.406              2212.79                     64.2808
6     12     0.56          66.6             0.4116              2229.6                     64.5245
6     12     0.56          66.6             0.4172              2281.88                     65.2766
6     12     0.56          66.6             0.4228              2227.73                     64.4974
6     12     0.56          66.6             0.4284              2257.61                     64.9285
6     12     0.56          66.6             0.434              2265.08                     65.0358
6     12     0.56          66.6             0.4396              2397.66                     66.9121
6     12     0.56          66.6             0.4452              2291.22                     65.4101
6     12     0.56          66.6             0.4508              2238.93                     64.6594
6     12     0.56          66.6             0.4564              2162.37                     63.5443
6     12     0.56          66.6             0.462              2151.17                     63.3794
6     12     0.56          66.6             0.4676              2182.91                     63.8454
6     12     0.56          66.6             0.4732              1899.08                     59.5501
6     12     0.56          66.6             0.4788              1990.58                     60.9678
6     12     0.56          66.6             0.4844              1891.61                     59.4329
6     12     0.56          66.6             0.49              1811.31                     58.1578
6     12     0.56          66.6             0.4956              1645.12                     55.4256
6     12     0.56          66.6             0.5012              1488.27                     52.7171
6     12     0.56          66.6             0.5068              1562.96                     54.0238
6     12     0.56          66.6             0.5124              1359.42                     50.3834
6     12     0.56          66.6             0.518              1359.42                     50.3834
6     12     0.56          66.6             0.5236              1239.91                     48.1179
6     12     0.56          66.6             0.5292              829.097                     39.3472
6     12     0.56          66.6             0.5348              0                     0
6     12     0.56          66.6             0.5404              0                     0
6     12     0.56          66.6             0.546              0                     0
6     12     0.56          66.6             0.5516              0                     0
*******************************************************************************************************
 Average angle 66.5694 +- 0.24528 deg 
 Average E' 0.253218 +- 0.000933001 GeV 
