*******************************************************************************************************
Z     A     E(GeV)     Theta(deg)     Energy Loss(GeV)     Sigma(#mub/sr/GeV)     ERROR     Citation     
*******************************************************************************************************
6     12     0.56          104.4             0.0028              0                     0
6     12     0.56          104.4             0.0084              0                     0
6     12     0.56          104.4             0.014              0                     0
6     12     0.56          104.4             0.0196              0                     0
6     12     0.56          104.4             0.0252              0                     0
6     12     0.56          104.4             0.0308              0                     0
6     12     0.56          104.4             0.0364              0                     0
6     12     0.56          104.4             0.042              0                     0
6     12     0.56          104.4             0.0476              0                     0
6     12     0.56          104.4             0.0532              0                     0
6     12     0.56          104.4             0.0588              0                     0
6     12     0.56          104.4             0.0644              0                     0
6     12     0.56          104.4             0.07              0                     0
6     12     0.56          104.4             0.0756              0                     0
6     12     0.56          104.4             0.0812              0                     0
6     12     0.56          104.4             0.0868              0                     0
6     12     0.56          104.4             0.0924              0                     0
6     12     0.56          104.4             0.098              0                     0
6     12     0.56          104.4             0.1036              0                     0
6     12     0.56          104.4             0.1092              0                     0
6     12     0.56          104.4             0.1148              0                     0
6     12     0.56          104.4             0.1204              0                     0
6     12     0.56          104.4             0.126              0                     0
6     12     0.56          104.4             0.1316              0                     0
6     12     0.56          104.4             0.1372              0                     0
6     12     0.56          104.4             0.1428              0                     0
6     12     0.56          104.4             0.1484              0                     0
6     12     0.56          104.4             0.154              8.84671                     3.95637
6     12     0.56          104.4             0.1596              21.2321                     6.12918
6     12     0.56          104.4             0.1652              31.8482                     7.50668
6     12     0.56          104.4             0.1708              30.0788                     7.29519
6     12     0.56          104.4             0.1764              58.3883                     10.1641
6     12     0.56          104.4             0.182              63.6963                     10.6161
6     12     0.56          104.4             0.1876              109.699                     13.9318
6     12     0.56          104.4             0.1932              116.777                     14.3742
6     12     0.56          104.4             0.1988              152.163                     16.4082
6     12     0.56          104.4             0.2044              198.166                     18.725
6     12     0.56          104.4             0.21              237.092                     20.4816
6     12     0.56          104.4             0.2156              286.633                     22.5201
6     12     0.56          104.4             0.2212              293.711                     22.7964
6     12     0.56          104.4             0.2268              323.79                     23.9352
6     12     0.56          104.4             0.2324              323.79                     23.9352
6     12     0.56          104.4             0.238              445.874                     28.0874
6     12     0.56          104.4             0.2436              477.722                     29.0733
6     12     0.56          104.4             0.2492              483.03                     29.2343
6     12     0.56          104.4             0.2548              529.033                     30.5948
6     12     0.56          104.4             0.2604              493.647                     29.5538
6     12     0.56          104.4             0.266              475.953                     29.0194
6     12     0.56          104.4             0.2716              511.34                     30.0788
6     12     0.56          104.4             0.2772              465.337                     28.6939
6     12     0.56          104.4             0.2828              451.182                     28.2541
6     12     0.56          104.4             0.2884              435.258                     27.7511
6     12     0.56          104.4             0.294              406.949                     26.8334
6     12     0.56          104.4             0.2996              426.412                     27.4676
6     12     0.56          104.4             0.3052              438.797                     27.8636
6     12     0.56          104.4             0.3108              403.41                     26.7165
6     12     0.56          104.4             0.3164              399.871                     26.599
6     12     0.56          104.4             0.322              429.95                     27.5813
6     12     0.56          104.4             0.3276              440.566                     27.9198
6     12     0.56          104.4             0.3332              405.179                     26.775
6     12     0.56          104.4             0.3388              385.717                     26.124
6     12     0.56          104.4             0.3444              380.409                     25.9437
6     12     0.56          104.4             0.35              488.338                     29.3945
6     12     0.56          104.4             0.3556              442.336                     27.9758
6     12     0.56          104.4             0.3612              380.409                     25.9437
6     12     0.56          104.4             0.3668              447.644                     28.1431
6     12     0.56          104.4             0.3724              438.797                     27.8636
6     12     0.56          104.4             0.378              493.647                     29.5538
6     12     0.56          104.4             0.3836              518.417                     30.2863
6     12     0.56          104.4             0.3892              451.182                     28.2541
6     12     0.56          104.4             0.3948              566.19                     31.651
6     12     0.56          104.4             0.4004              550.265                     31.2027
6     12     0.56          104.4             0.406              681.197                     34.717
6     12     0.56          104.4             0.4116              705.968                     35.3426
6     12     0.56          104.4             0.4172              709.506                     35.4311
6     12     0.56          104.4             0.4228              789.127                     37.3662
6     12     0.56          104.4             0.4284              739.585                     36.1743
6     12     0.56          104.4             0.434              746.662                     36.347
6     12     0.56          104.4             0.4396              927.135                     40.5021
6     12     0.56          104.4             0.4452              785.588                     37.2824
6     12     0.56          104.4             0.4508              920.058                     40.3472
6     12     0.56          104.4             0.4564              851.054                     38.8047
6     12     0.56          104.4             0.462              893.518                     39.761
6     12     0.56          104.4             0.4676              877.594                     39.4051
6     12     0.56          104.4             0.4732              828.052                     38.2767
6     12     0.56          104.4             0.4788              854.592                     38.8853
6     12     0.56          104.4             0.4844              898.826                     39.879
6     12     0.56          104.4             0.49              767.895                     36.8601
6     12     0.56          104.4             0.4956              889.979                     39.6822
6     12     0.56          104.4             0.5012              773.203                     36.9873
6     12     0.56          104.4             0.5068              707.737                     35.3868
6     12     0.56          104.4             0.5124              681.197                     34.717
6     12     0.56          104.4             0.518              693.582                     35.0312
6     12     0.56          104.4             0.5236              695.352                     35.0758
6     12     0.56          104.4             0.5292              603.346                     32.673
6     12     0.56          104.4             0.5348              555.574                     31.3528
6     12     0.56          104.4             0.5404              557.343                     31.4027
6     12     0.56          104.4             0.546              207.013                     19.1384
6     12     0.56          104.4             0.5516              0                     0
*******************************************************************************************************
 Average angle 104.38 +- 0.739407 deg 
 Average E' 0.163927 +- 0.00116123 GeV 
