*******************************************************************************************************
Z     A     E(GeV)     Theta(deg)     Energy Loss(GeV)     Sigma(#mub/sr/GeV)     ERROR     Citation     
*******************************************************************************************************
6     12     0.48          100             0.0024              0                     0
6     12     0.48          100             0.0072              0                     0
6     12     0.48          100             0.012              0                     0
6     12     0.48          100             0.0168              0                     0
6     12     0.48          100             0.0216              0                     0
6     12     0.48          100             0.0264              0                     0
6     12     0.48          100             0.0312              0                     0
6     12     0.48          100             0.036              0                     0
6     12     0.48          100             0.0408              0                     0
6     12     0.48          100             0.0456              0                     0
6     12     0.48          100             0.0504              0                     0
6     12     0.48          100             0.0552              0                     0
6     12     0.48          100             0.06              0                     0
6     12     0.48          100             0.0648              0                     0
6     12     0.48          100             0.0696              0                     0
6     12     0.48          100             0.0744              0                     0
6     12     0.48          100             0.0792              0                     0
6     12     0.48          100             0.084              0                     0
6     12     0.48          100             0.0888              0                     0
6     12     0.48          100             0.0936              0                     0
6     12     0.48          100             0.0984              0                     0
6     12     0.48          100             0.1032              1.92238                     1.92238
6     12     0.48          100             0.108              13.4566                     5.08613
6     12     0.48          100             0.1128              26.9133                     7.19287
6     12     0.48          100             0.1176              49.9818                     9.80223
6     12     0.48          100             0.1224              90.3516                     13.1791
6     12     0.48          100             0.1272              111.498                     14.6404
6     12     0.48          100             0.132              126.877                     15.6175
6     12     0.48          100             0.1368              192.238                     19.2238
6     12     0.48          100             0.1416              280.667                     23.2281
6     12     0.48          100             0.1464              296.046                     23.8561
6     12     0.48          100             0.1512              386.397                     27.2544
6     12     0.48          100             0.156              413.311                     28.1876
6     12     0.48          100             0.1608              480.594                     30.3954
6     12     0.48          100             0.1656              515.197                     31.4706
6     12     0.48          100             0.1704              617.082                     34.4422
6     12     0.48          100             0.1752              655.53                     35.4989
6     12     0.48          100             0.18              651.685                     35.3947
6     12     0.48          100             0.1848              832.389                     40.002
6     12     0.48          100             0.1896              857.379                     40.5981
6     12     0.48          100             0.1944              851.612                     40.4613
6     12     0.48          100             0.1992              922.74                     42.1171
6     12     0.48          100             0.204              813.165                     39.5374
6     12     0.48          100             0.2088              876.603                     41.0507
6     12     0.48          100             0.2136              767.028                     38.3994
6     12     0.48          100             0.2184              809.32                     39.4438
6     12     0.48          100             0.2232              715.124                     37.0774
6     12     0.48          100             0.228              661.297                     35.6548
6     12     0.48          100             0.2328              703.589                     36.7772
6     12     0.48          100             0.2376              690.133                     36.4238
6     12     0.48          100             0.2424              724.735                     37.3258
6     12     0.48          100             0.2472              665.142                     35.7582
6     12     0.48          100             0.252              672.831                     35.9643
6     12     0.48          100             0.2568              661.297                     35.6548
6     12     0.48          100             0.2616              636.306                     34.9746
6     12     0.48          100             0.2664              601.703                     34.0103
6     12     0.48          100             0.2712              617.082                     34.4422
6     12     0.48          100             0.276              597.859                     33.9015
6     12     0.48          100             0.2808              497.895                     30.9377
6     12     0.48          100             0.2856              469.06                     30.0285
6     12     0.48          100             0.2904              472.904                     30.1513
6     12     0.48          100             0.2952              392.165                     27.457
6     12     0.48          100             0.3              434.457                     28.8996
6     12     0.48          100             0.3048              390.242                     27.3896
6     12     0.48          100             0.3096              388.32                     27.3221
6     12     0.48          100             0.3144              355.639                     26.1471
6     12     0.48          100             0.3192              447.913                     29.3438
6     12     0.48          100             0.324              409.466                     28.0561
6     12     0.48          100             0.3288              401.776                     27.7915
6     12     0.48          100             0.3336              424.845                     28.5782
6     12     0.48          100             0.3384              509.429                     31.294
6     12     0.48          100             0.3432              517.119                     31.5293
6     12     0.48          100             0.348              574.79                     33.241
6     12     0.48          100             0.3528              592.092                     33.7375
6     12     0.48          100             0.3576              653.608                     35.4468
6     12     0.48          100             0.3624              688.21                     36.373
6     12     0.48          100             0.3672              715.124                     37.0774
6     12     0.48          100             0.372              753.571                     38.0611
6     12     0.48          100             0.3768              801.631                     39.256
6     12     0.48          100             0.3816              909.284                     41.8089
6     12     0.48          100             0.3864              918.895                     42.0293
6     12     0.48          100             0.3912              1040.01                     44.7133
6     12     0.48          100             0.396              1145.74                     46.9312
6     12     0.48          100             0.4008              1157.27                     47.1668
6     12     0.48          100             0.4056              1136.12                     46.7339
6     12     0.48          100             0.4104              1195.72                     47.9439
6     12     0.48          100             0.4152              1230.32                     48.6327
6     12     0.48          100             0.42              1174.57                     47.5181
6     12     0.48          100             0.4248              1224.55                     48.5186
6     12     0.48          100             0.4296              1287.99                     49.7595
6     12     0.48          100             0.4344              1334.13                     50.6428
6     12     0.48          100             0.4392              1336.05                     50.6793
6     12     0.48          100             0.444              1341.82                     50.7886
6     12     0.48          100             0.4488              1314.9                     50.2766
6     12     0.48          100             0.4536              1266.85                     49.3493
6     12     0.48          100             0.4584              1274.53                     49.4988
6     12     0.48          100             0.4632              363.329                     26.4283
6     12     0.48          100             0.468              0                     0
6     12     0.48          100             0.4728              0                     0
*******************************************************************************************************
 Average angle 99.9803 +- 0.613053 deg 
 Average E' 0.157359 +- 0.000964885 GeV 
