*******************************************************************************************************
Z     A     E(GeV)     Theta(deg)     Energy Loss(GeV)     Sigma(#mub/sr/GeV)     ERROR     Citation     
*******************************************************************************************************
6     12     0.32          140             0.0016              0                     0
6     12     0.32          140             0.0048              0                     0
6     12     0.32          140             0.008              0                     0
6     12     0.32          140             0.0112              0                     0
6     12     0.32          140             0.0144              0                     0
6     12     0.32          140             0.0176              0                     0
6     12     0.32          140             0.0208              0                     0
6     12     0.32          140             0.024              3.65518                     3.65518
6     12     0.32          140             0.0272              7.31037                     5.16921
6     12     0.32          140             0.0304              3.65518                     3.65518
6     12     0.32          140             0.0336              3.65518                     3.65518
6     12     0.32          140             0.0368              21.9311                     8.95333
6     12     0.32          140             0.04              14.6207                     7.31037
6     12     0.32          140             0.0432              14.6207                     7.31037
6     12     0.32          140             0.0464              54.8278                     14.1565
6     12     0.32          140             0.0496              25.5863                     9.67071
6     12     0.32          140             0.0528              51.1726                     13.6764
6     12     0.32          140             0.056              65.7933                     15.5076
6     12     0.32          140             0.0592              69.4485                     15.9326
6     12     0.32          140             0.0624              65.7933                     15.5076
6     12     0.32          140             0.0656              142.552                     22.8266
6     12     0.32          140             0.0688              164.483                     24.5197
6     12     0.32          140             0.072              263.173                     31.0153
6     12     0.32          140             0.0752              215.656                     28.076
6     12     0.32          140             0.0784              303.38                     33.3003
6     12     0.32          140             0.0816              420.346                     39.1975
6     12     0.32          140             0.0848              500.76                     42.7828
6     12     0.32          140             0.088              610.416                     47.2354
6     12     0.32          140             0.0912              749.313                     52.3343
6     12     0.32          140             0.0944              800.485                     54.0918
6     12     0.32          140             0.0976              833.382                     55.1921
6     12     0.32          140             0.1008              972.279                     59.6142
6     12     0.32          140             0.104              1081.93                     62.8862
6     12     0.32          140             0.1072              1111.18                     63.7303
6     12     0.32          140             0.1104              1217.18                     66.7008
6     12     0.32          140             0.1136              1326.83                     69.6406
6     12     0.32          140             0.1168              1520.56                     74.5514
6     12     0.32          140             0.12              1451.11                     72.829
6     12     0.32          140             0.1232              1535.18                     74.909
6     12     0.32          140             0.1264              1553.45                     75.3535
6     12     0.32          140             0.1296              1593.66                     76.3225
6     12     0.32          140             0.1328              1772.76                     80.4971
6     12     0.32          140             0.136              1728.9                     79.495
6     12     0.32          140             0.1392              1714.28                     79.1581
6     12     0.32          140             0.1424              1630.21                     77.1928
6     12     0.32          140             0.1456              1652.14                     77.7103
6     12     0.32          140             0.1488              1674.07                     78.2243
6     12     0.32          140             0.152              1557.11                     75.4421
6     12     0.32          140             0.1552              1590                     76.2349
6     12     0.32          140             0.1584              1527.87                     74.7304
6     12     0.32          140             0.1616              1334.14                     69.8322
6     12     0.32          140             0.1648              1235.45                     67.1997
6     12     0.32          140             0.168              1246.42                     67.4973
6     12     0.32          140             0.1712              1166                     65.2837
6     12     0.32          140             0.1744              1038.07                     61.5982
6     12     0.32          140             0.1776              1049.04                     61.9227
6     12     0.32          140             0.1808              1019.8                     61.0536
6     12     0.32          140             0.184              964.968                     59.3897
6     12     0.32          140             0.1872              796.83                     53.9681
6     12     0.32          140             0.1904              760.278                     52.7158
6     12     0.32          140             0.1936              679.864                     49.8501
6     12     0.32          140             0.1968              639.657                     48.3535
6     12     0.32          140             0.2              628.692                     47.9373
6     12     0.32          140             0.2032              497.105                     42.6264
6     12     0.32          140             0.2064              493.45                     42.4694
6     12     0.32          140             0.2096              376.484                     37.0961
6     12     0.32          140             0.2128              303.38                     33.3003
6     12     0.32          140             0.216              328.967                     34.6761
6     12     0.32          140             0.2192              277.794                     31.8652
6     12     0.32          140             0.2224              230.277                     29.0121
6     12     0.32          140             0.2256              226.621                     28.7809
6     12     0.32          140             0.2288              124.276                     21.3132
6     12     0.32          140             0.232              201.035                     27.1076
6     12     0.32          140             0.2352              160.828                     24.2457
6     12     0.32          140             0.2384              171.794                     25.0587
6     12     0.32          140             0.2416              204.69                     27.3529
6     12     0.32          140             0.2448              244.897                     29.919
6     12     0.32          140             0.248              197.38                     26.86
6     12     0.32          140             0.2512              281.449                     32.0741
6     12     0.32          140             0.2544              255.863                     30.5815
6     12     0.32          140             0.2576              255.863                     30.5815
6     12     0.32          140             0.2608              336.277                     35.0593
6     12     0.32          140             0.264              263.173                     31.0153
6     12     0.32          140             0.2672              328.967                     34.6761
6     12     0.32          140             0.2704              449.588                     40.5379
6     12     0.32          140             0.2736              482.484                     41.9949
6     12     0.32          140             0.2768              544.622                     44.6172
6     12     0.32          140             0.28              584.829                     46.2348
6     12     0.32          140             0.2832              668.899                     49.4464
6     12     0.32          140             0.2864              782.209                     53.4707
6     12     0.32          140             0.2896              884.554                     56.8613
6     12     0.32          140             0.2928              1144.07                     64.6668
6     12     0.32          140             0.296              1253.73                     67.6949
6     12     0.32          140             0.2992              1535.18                     74.909
6     12     0.32          140             0.3024              855.313                     55.9136
6     12     0.32          140             0.3056              0                     0
6     12     0.32          140             0.3088              0                     0
6     12     0.32          140             0.312              0                     0
6     12     0.32          140             0.3152              0                     0
*******************************************************************************************************
 Average angle 139.971 +- 1.08241 deg 
 Average E' 0.149738 +- 0.00115795 GeV 
