*******************************************************************************************************
Z     A     E(GeV)     Theta(deg)     Energy Loss(GeV)     Sigma(#mub/sr/GeV)     ERROR     Citation     
*******************************************************************************************************
6     12     0.2          138             0.001              71.4675                     16.8451
6     12     0.2          138             0.003              51.6154                     14.3155
6     12     0.2          138             0.005              63.5267                     15.8817
6     12     0.2          138             0.007              59.5562                     15.3774
6     12     0.2          138             0.009              63.5267                     15.8817
6     12     0.2          138             0.011              111.172                     21.0095
6     12     0.2          138             0.013              99.2604                     19.8521
6     12     0.2          138             0.015              107.201                     20.6309
6     12     0.2          138             0.017              142.935                     23.8225
6     12     0.2          138             0.019              146.905                     24.1511
6     12     0.2          138             0.021              115.142                     21.3813
6     12     0.2          138             0.023              166.757                     25.7312
6     12     0.2          138             0.025              142.935                     23.8225
6     12     0.2          138             0.027              174.698                     26.3368
6     12     0.2          138             0.029              131.024                     22.8083
6     12     0.2          138             0.031              146.905                     24.1511
6     12     0.2          138             0.033              206.462                     28.6311
6     12     0.2          138             0.035              226.314                     29.976
6     12     0.2          138             0.037              484.391                     43.8547
6     12     0.2          138             0.039              579.681                     47.9747
6     12     0.2          138             0.041              940.989                     61.1238
6     12     0.2          138             0.043              1405.53                     74.7029
6     12     0.2          138             0.045              1667.57                     81.3693
6     12     0.2          138             0.047              2263.14                     94.7924
6     12     0.2          138             0.049              2668.12                     102.925
6     12     0.2          138             0.051              2977.81                     108.734
6     12     0.2          138             0.053              3720.28                     121.536
6     12     0.2          138             0.055              4264.23                     130.118
6     12     0.2          138             0.057              4546.13                     134.35
6     12     0.2          138             0.059              5217.13                     143.924
6     12     0.2          138             0.061              5113.9                     142.493
6     12     0.2          138             0.063              5753.13                     151.137
6     12     0.2          138             0.065              5780.93                     151.501
6     12     0.2          138             0.067              5987.39                     154.183
6     12     0.2          138             0.069              6201.79                     156.919
6     12     0.2          138             0.071              6042.97                     154.897
6     12     0.2          138             0.073              5955.62                     153.774
6     12     0.2          138             0.075              6308.99                     158.27
6     12     0.2          138             0.077              5578.44                     148.824
6     12     0.2          138             0.079              5804.75                     151.813
6     12     0.2          138             0.081              5868.28                     152.642
6     12     0.2          138             0.083              5542.7                     148.347
6     12     0.2          138             0.085              5550.64                     148.453
6     12     0.2          138             0.087              5586.38                     148.93
6     12     0.2          138             0.089              5153.6                     143.045
6     12     0.2          138             0.091              5157.57                     143.1
6     12     0.2          138             0.093              4597.74                     135.111
6     12     0.2          138             0.095              4569.95                     134.702
6     12     0.2          138             0.097              4677.15                     136.273
6     12     0.2          138             0.099              4371.43                     131.744
6     12     0.2          138             0.101              4216.58                     129.389
6     12     0.2          138             0.103              3759.98                     122.183
6     12     0.2          138             0.105              3823.51                     123.211
6     12     0.2          138             0.107              3668.66                     120.69
6     12     0.2          138             0.109              3382.79                     115.893
6     12     0.2          138             0.111              3303.39                     114.524
6     12     0.2          138             0.113              3164.42                     112.09
6     12     0.2          138             0.115              2787.23                     105.197
6     12     0.2          138             0.117              2608.56                     101.77
6     12     0.2          138             0.119              2545.04                     100.523
6     12     0.2          138             0.121              2429.89                     98.2227
6     12     0.2          138             0.123              2211.52                     93.7052
6     12     0.2          138             0.125              1830.36                     85.2485
6     12     0.2          138             0.127              1627.87                     80.3948
6     12     0.2          138             0.129              1516.7                     77.6011
6     12     0.2          138             0.131              1453.17                     75.9585
6     12     0.2          138             0.133              1139.51                     67.2631
6     12     0.2          138             0.135              1083.92                     65.602
6     12     0.2          138             0.137              798.054                     56.2904
6     12     0.2          138             0.139              579.681                     47.9747
6     12     0.2          138             0.141              524.095                     45.6166
6     12     0.2          138             0.143              420.864                     40.8779
6     12     0.2          138             0.145              266.018                     32.4993
6     12     0.2          138             0.147              194.55                     27.7929
6     12     0.2          138             0.149              131.024                     22.8083
6     12     0.2          138             0.151              75.4379                     17.3066
6     12     0.2          138             0.153              115.142                     21.3813
6     12     0.2          138             0.155              115.142                     21.3813
6     12     0.2          138             0.157              99.2604                     19.8521
6     12     0.2          138             0.159              87.3492                     18.6229
6     12     0.2          138             0.161              83.3787                     18.1947
6     12     0.2          138             0.163              95.29                     19.451
6     12     0.2          138             0.165              79.4083                     17.7562
6     12     0.2          138             0.167              79.4083                     17.7562
6     12     0.2          138             0.169              67.4971                     16.3704
6     12     0.2          138             0.171              39.7042                     12.5556
6     12     0.2          138             0.173              0                     0
6     12     0.2          138             0.175              0                     0
6     12     0.2          138             0.177              0                     0
6     12     0.2          138             0.179              0                     0
6     12     0.2          138             0.181              0                     0
6     12     0.2          138             0.183              0                     0
6     12     0.2          138             0.185              0                     0
6     12     0.2          138             0.187              0                     0
6     12     0.2          138             0.189              0                     0
6     12     0.2          138             0.191              0                     0
6     12     0.2          138             0.193              0                     0
6     12     0.2          138             0.195              0                     0
6     12     0.2          138             0.197              0                     0
*******************************************************************************************************
 Average angle 137.972 +- 0.625129 deg 
 Average E' 0.116278 +- 0.000526835 GeV 
