*******************************************************************************************************
Z     A     E(GeV)     Theta(deg)     Energy Loss(GeV)     Sigma(#mub/sr/GeV)     ERROR     Citation     
*******************************************************************************************************
6     12     0.56          50.4             0.0028              0                     0
6     12     0.56          50.4             0.0084              2.22417                     2.22417
6     12     0.56          50.4             0.014              0                     0
6     12     0.56          50.4             0.0196              0                     0
6     12     0.56          50.4             0.0252              0                     0
6     12     0.56          50.4             0.0308              0                     0
6     12     0.56          50.4             0.0364              0                     0
6     12     0.56          50.4             0.042              0                     0
6     12     0.56          50.4             0.0476              91.1911                     14.2417
6     12     0.56          50.4             0.0532              983.085                     46.7606
6     12     0.56          50.4             0.0588              2388.76                     72.8905
6     12     0.56          50.4             0.0644              3558.68                     88.9669
6     12     0.56          50.4             0.07              4835.35                     103.705
6     12     0.56          50.4             0.0756              5880.72                     114.367
6     12     0.56          50.4             0.0812              7268.6                     127.148
6     12     0.56          50.4             0.0868              8663.16                     138.811
6     12     0.56          50.4             0.0924              9501.67                     145.373
6     12     0.56          50.4             0.098              10860.6                     155.422
6     12     0.56          50.4             0.1036              11581.3                     160.495
6     12     0.56          50.4             0.1092              12426.5                     166.249
6     12     0.56          50.4             0.1148              12984.7                     169.942
6     12     0.56          50.4             0.1204              13069.2                     170.494
6     12     0.56          50.4             0.126              12640                     167.671
6     12     0.56          50.4             0.1316              11723.6                     161.479
6     12     0.56          50.4             0.1372              10967.4                     156.184
6     12     0.56          50.4             0.1428              10607.1                     153.597
6     12     0.56          50.4             0.1484              9410.48                     144.674
6     12     0.56          50.4             0.154              8629.79                     138.543
6     12     0.56          50.4             0.1596              7851.33                     132.147
6     12     0.56          50.4             0.1652              7319.76                     127.595
6     12     0.56          50.4             0.1708              6398.95                     119.299
6     12     0.56          50.4             0.1764              5598.24                     111.586
6     12     0.56          50.4             0.182              5160.08                     107.13
6     12     0.56          50.4             0.1876              4468.36                     99.6916
6     12     0.56          50.4             0.1932              3778.87                     91.6781
6     12     0.56          50.4             0.1988              3474.16                     87.9041
6     12     0.56          50.4             0.2044              2915.89                     80.5323
6     12     0.56          50.4             0.21              2551.13                     75.327
6     12     0.56          50.4             0.2156              2175.24                     69.5566
6     12     0.56          50.4             0.2212              1743.75                     62.2769
6     12     0.56          50.4             0.2268              1459.06                     56.9666
6     12     0.56          50.4             0.2324              1330.06                     54.39
6     12     0.56          50.4             0.238              1076.5                     48.9318
6     12     0.56          50.4             0.2436              1034.24                     47.9618
6     12     0.56          50.4             0.2492              991.981                     46.9717
6     12     0.56          50.4             0.2548              1027.57                     47.8068
6     12     0.56          50.4             0.2604              1054.26                     48.4237
6     12     0.56          50.4             0.266              1114.31                     49.7837
6     12     0.56          50.4             0.2716              1147.67                     50.5235
6     12     0.56          50.4             0.2772              1234.42                     52.3981
6     12     0.56          50.4             0.2828              1263.33                     53.0082
6     12     0.56          50.4             0.2884              1334.5                     54.4809
6     12     0.56          50.4             0.294              1456.83                     56.9232
6     12     0.56          50.4             0.2996              1674.8                     61.0332
6     12     0.56          50.4             0.3052              1670.35                     60.9521
6     12     0.56          50.4             0.3108              1943.93                     65.7543
6     12     0.56          50.4             0.3164              1879.43                     64.6542
6     12     0.56          50.4             0.322              2235.29                     70.5102
6     12     0.56          50.4             0.3276              2526.66                     74.9649
6     12     0.56          50.4             0.3332              2722.39                     77.8143
6     12     0.56          50.4             0.3388              2842.49                     79.5123
6     12     0.56          50.4             0.3444              3113.84                     83.221
6     12     0.56          50.4             0.35              3285.1                     85.4789
6     12     0.56          50.4             0.3556              3436.35                     87.4245
6     12     0.56          50.4             0.3612              3694.35                     90.647
6     12     0.56          50.4             0.3668              3939.01                     93.6005
6     12     0.56          50.4             0.3724              4054.67                     94.9647
6     12     0.56          50.4             0.378              4259.29                     97.3314
6     12     0.56          50.4             0.3836              4128.07                     95.8203
6     12     0.56          50.4             0.3892              4201.46                     96.6684
6     12     0.56          50.4             0.3948              4439.45                     99.3685
6     12     0.56          50.4             0.4004              4535.09                     100.433
6     12     0.56          50.4             0.406              4561.78                     100.728
6     12     0.56          50.4             0.4116              4348.26                     98.3427
6     12     0.56          50.4             0.4172              4408.31                     99.0194
6     12     0.56          50.4             0.4228              4441.67                     99.3934
6     12     0.56          50.4             0.4284              4114.72                     95.6653
6     12     0.56          50.4             0.434              4068.01                     95.1208
6     12     0.56          50.4             0.4396              3834.48                     92.3501
6     12     0.56          50.4             0.4452              3970.15                     93.9697
6     12     0.56          50.4             0.4508              3721.04                     90.9739
6     12     0.56          50.4             0.4564              3734.39                     91.1369
6     12     0.56          50.4             0.462              3271.76                     85.3051
6     12     0.56          50.4             0.4676              3371.85                     86.6001
6     12     0.56          50.4             0.4732              3322.92                     85.9694
6     12     0.56          50.4             0.4788              3258.41                     85.131
6     12     0.56          50.4             0.4844              3169.45                     83.9607
6     12     0.56          50.4             0.49              2927.01                     80.6857
6     12     0.56          50.4             0.4956              2608.96                     76.1759
6     12     0.56          50.4             0.5012              2644.54                     76.6937
6     12     0.56          50.4             0.5068              2386.54                     72.8565
6     12     0.56          50.4             0.5124              558.268                     35.2375
6     12     0.56          50.4             0.518              0                     0
6     12     0.56          50.4             0.5236              0                     0
6     12     0.56          50.4             0.5292              0                     0
6     12     0.56          50.4             0.5348              0                     0
6     12     0.56          50.4             0.5404              0                     0
6     12     0.56          50.4             0.546              0                     0
6     12     0.56          50.4             0.5516              0                     0
*******************************************************************************************************
 Average angle 50.3553 +- 0.124076 deg 
 Average E' 0.32645 +- 0.000804377 GeV 
