*******************************************************************************************************
Z     A     E(GeV)     Theta(deg)     Energy Loss(GeV)     Sigma(#mub/sr/GeV)     ERROR     Citation     
*******************************************************************************************************
6     12     0.24          170.667             0.0012              48.0022                     27.7141
6     12     0.24          170.667             0.0036              32.0015                     22.6285
6     12     0.24          170.667             0.006              32.0015                     22.6285
6     12     0.24          170.667             0.0084              48.0022                     27.7141
6     12     0.24          170.667             0.0108              48.0022                     27.7141
6     12     0.24          170.667             0.0132              48.0022                     27.7141
6     12     0.24          170.667             0.0156              64.0029                     32.0015
6     12     0.24          170.667             0.018              48.0022                     27.7141
6     12     0.24          170.667             0.0204              32.0015                     22.6285
6     12     0.24          170.667             0.0228              64.0029                     32.0015
6     12     0.24          170.667             0.0252              96.0044                     39.1936
6     12     0.24          170.667             0.0276              128.006                     45.2569
6     12     0.24          170.667             0.03              144.007                     48.0022
6     12     0.24          170.667             0.0324              48.0022                     27.7141
6     12     0.24          170.667             0.0348              160.007                     50.5988
6     12     0.24          170.667             0.0372              128.006                     45.2569
6     12     0.24          170.667             0.0396              96.0044                     39.1936
6     12     0.24          170.667             0.042              96.0044                     39.1936
6     12     0.24          170.667             0.0444              96.0044                     39.1936
6     12     0.24          170.667             0.0468              320.015                     71.5575
6     12     0.24          170.667             0.0492              320.015                     71.5575
6     12     0.24          170.667             0.0516              368.017                     76.7368
6     12     0.24          170.667             0.054              512.024                     90.5138
6     12     0.24          170.667             0.0564              912.042                     120.803
6     12     0.24          170.667             0.0588              816.038                     114.268
6     12     0.24          170.667             0.0612              1360.06                     147.519
6     12     0.24          170.667             0.0636              1248.06                     141.315
6     12     0.24          170.667             0.066              1504.07                     155.133
6     12     0.24          170.667             0.0684              1376.06                     148.385
6     12     0.24          170.667             0.0708              1504.07                     155.133
6     12     0.24          170.667             0.0732              1856.09                     172.333
6     12     0.24          170.667             0.0756              2032.09                     180.319
6     12     0.24          170.667             0.078              1824.08                     170.841
6     12     0.24          170.667             0.0804              2144.1                     185.222
6     12     0.24          170.667             0.0828              2336.11                     193.338
6     12     0.24          170.667             0.0852              2496.11                     199.849
6     12     0.24          170.667             0.0876              2560.12                     202.395
6     12     0.24          170.667             0.09              2192.1                     187.284
6     12     0.24          170.667             0.0924              2688.12                     207.393
6     12     0.24          170.667             0.0948              2656.12                     206.155
6     12     0.24          170.667             0.0972              2768.13                     210.457
6     12     0.24          170.667             0.0996              2832.13                     212.876
6     12     0.24          170.667             0.102              2768.13                     210.457
6     12     0.24          170.667             0.1044              2496.11                     199.849
6     12     0.24          170.667             0.1068              2496.11                     199.849
6     12     0.24          170.667             0.1092              2304.11                     192.009
6     12     0.24          170.667             0.1116              2432.11                     197.27
6     12     0.24          170.667             0.114              2208.1                     187.966
6     12     0.24          170.667             0.1164              2112.1                     183.834
6     12     0.24          170.667             0.1188              2128.1                     184.529
6     12     0.24          170.667             0.1212              2224.1                     188.646
6     12     0.24          170.667             0.1236              2080.1                     182.436
6     12     0.24          170.667             0.126              1936.09                     176.008
6     12     0.24          170.667             0.1284              2128.1                     184.529
6     12     0.24          170.667             0.1308              1760.08                     167.817
6     12     0.24          170.667             0.1332              1712.08                     165.513
6     12     0.24          170.667             0.1356              1712.08                     165.513
6     12     0.24          170.667             0.138              1536.07                     156.775
6     12     0.24          170.667             0.1404              1392.06                     149.245
6     12     0.24          170.667             0.1428              1552.07                     157.589
6     12     0.24          170.667             0.1452              1312.06                     144.893
6     12     0.24          170.667             0.1476              992.046                     125.99
6     12     0.24          170.667             0.15              928.043                     121.858
6     12     0.24          170.667             0.1524              752.035                     109.696
6     12     0.24          170.667             0.1548              976.045                     124.97
6     12     0.24          170.667             0.1572              720.033                     107.336
6     12     0.24          170.667             0.1596              768.035                     110.856
6     12     0.24          170.667             0.162              608.028                     98.6352
6     12     0.24          170.667             0.1644              576.026                     96.0044
6     12     0.24          170.667             0.1668              400.018                     80.0037
6     12     0.24          170.667             0.1692              336.015                     73.3246
6     12     0.24          170.667             0.1716              224.01                     59.8693
6     12     0.24          170.667             0.174              192.009                     55.4282
6     12     0.24          170.667             0.1764              160.007                     50.5988
6     12     0.24          170.667             0.1788              160.007                     50.5988
6     12     0.24          170.667             0.1812              192.009                     55.4282
6     12     0.24          170.667             0.1836              112.005                     42.334
6     12     0.24          170.667             0.186              144.007                     48.0022
6     12     0.24          170.667             0.1884              128.006                     45.2569
6     12     0.24          170.667             0.1908              80.0037                     35.7787
6     12     0.24          170.667             0.1932              128.006                     45.2569
6     12     0.24          170.667             0.1956              144.007                     48.0022
6     12     0.24          170.667             0.198              112.005                     42.334
6     12     0.24          170.667             0.2004              144.007                     48.0022
6     12     0.24          170.667             0.2028              112.005                     42.334
6     12     0.24          170.667             0.2052              176.008                     53.0684
6     12     0.24          170.667             0.2076              80.0037                     35.7787
6     12     0.24          170.667             0.21              144.007                     48.0022
6     12     0.24          170.667             0.2124              48.0022                     27.7141
6     12     0.24          170.667             0.2148              112.005                     42.334
6     12     0.24          170.667             0.2172              176.008                     53.0684
6     12     0.24          170.667             0.2196              16.0007                     16.0007
6     12     0.24          170.667             0.222              0                     0
6     12     0.24          170.667             0.2244              0                     0
6     12     0.24          170.667             0.2268              0                     0
6     12     0.24          170.667             0.2292              0                     0
6     12     0.24          170.667             0.2316              0                     0
6     12     0.24          170.667             0.234              0                     0
6     12     0.24          170.667             0.2364              0                     0
*******************************************************************************************************
 Average angle 170.599 +- 2.29515 deg 
 Average E' 0.133247 +- 0.00179263 GeV 
