*******************************************************************************************************
Z     A     E(GeV)     Theta(deg)     Energy Loss(GeV)     Sigma(#mub/sr/GeV)     ERROR     Citation     
*******************************************************************************************************
6     12     0.56          115.2             0.0028              0                     0
6     12     0.56          115.2             0.0084              0                     0
6     12     0.56          115.2             0.014              0                     0
6     12     0.56          115.2             0.0196              0                     0
6     12     0.56          115.2             0.0252              0                     0
6     12     0.56          115.2             0.0308              0                     0
6     12     0.56          115.2             0.0364              0                     0
6     12     0.56          115.2             0.042              0                     0
6     12     0.56          115.2             0.0476              0                     0
6     12     0.56          115.2             0.0532              0                     0
6     12     0.56          115.2             0.0588              0                     0
6     12     0.56          115.2             0.0644              0                     0
6     12     0.56          115.2             0.07              0                     0
6     12     0.56          115.2             0.0756              0                     0
6     12     0.56          115.2             0.0812              0                     0
6     12     0.56          115.2             0.0868              0                     0
6     12     0.56          115.2             0.0924              0                     0
6     12     0.56          115.2             0.098              0                     0
6     12     0.56          115.2             0.1036              0                     0
6     12     0.56          115.2             0.1092              0                     0
6     12     0.56          115.2             0.1148              0                     0
6     12     0.56          115.2             0.1204              0                     0
6     12     0.56          115.2             0.126              0                     0
6     12     0.56          115.2             0.1316              0                     0
6     12     0.56          115.2             0.1372              0                     0
6     12     0.56          115.2             0.1428              0                     0
6     12     0.56          115.2             0.1484              0                     0
6     12     0.56          115.2             0.154              0                     0
6     12     0.56          115.2             0.1596              0                     0
6     12     0.56          115.2             0.1652              0                     0
6     12     0.56          115.2             0.1708              1.89401                     1.89401
6     12     0.56          115.2             0.1764              5.68204                     3.28053
6     12     0.56          115.2             0.182              11.3641                     4.63937
6     12     0.56          115.2             0.1876              24.6222                     6.82897
6     12     0.56          115.2             0.1932              47.3504                     9.47007
6     12     0.56          115.2             0.1988              39.7743                     8.67946
6     12     0.56          115.2             0.2044              49.2444                     9.65761
6     12     0.56          115.2             0.21              85.2306                     12.7054
6     12     0.56          115.2             0.2156              104.171                     14.0464
6     12     0.56          115.2             0.2212              147.733                     16.7275
6     12     0.56          115.2             0.2268              185.613                     18.7498
6     12     0.56          115.2             0.2324              189.401                     18.9401
6     12     0.56          115.2             0.238              227.282                     20.7479
6     12     0.56          115.2             0.2436              238.646                     21.2603
6     12     0.56          115.2             0.2492              227.282                     20.7479
6     12     0.56          115.2             0.2548              295.466                     23.6562
6     12     0.56          115.2             0.2604              284.102                     23.1968
6     12     0.56          115.2             0.266              361.757                     26.1758
6     12     0.56          115.2             0.2716              346.605                     25.6217
6     12     0.56          115.2             0.2772              339.029                     25.3402
6     12     0.56          115.2             0.2828              386.379                     27.0519
6     12     0.56          115.2             0.2884              365.545                     26.3125
6     12     0.56          115.2             0.294              369.333                     26.4485
6     12     0.56          115.2             0.2996              325.77                     24.8398
6     12     0.56          115.2             0.3052              320.088                     24.6222
6     12     0.56          115.2             0.3108              333.346                     25.1269
6     12     0.56          115.2             0.3164              308.724                     24.1812
6     12     0.56          115.2             0.322              318.194                     24.5492
6     12     0.56          115.2             0.3276              282.208                     23.1194
6     12     0.56          115.2             0.3332              272.738                     22.7282
6     12     0.56          115.2             0.3388              314.406                     24.4027
6     12     0.56          115.2             0.3444              339.029                     25.3402
6     12     0.56          115.2             0.35              297.36                     23.7319
6     12     0.56          115.2             0.3556              287.89                     23.351
6     12     0.56          115.2             0.3612              303.042                     23.9576
6     12     0.56          115.2             0.3668              339.029                     25.3402
6     12     0.56          115.2             0.3724              363.651                     26.2442
6     12     0.56          115.2             0.378              346.605                     25.6217
6     12     0.56          115.2             0.3836              361.757                     26.1758
6     12     0.56          115.2             0.3892              367.439                     26.3806
6     12     0.56          115.2             0.3948              411.001                     27.9006
6     12     0.56          115.2             0.4004              481.08                     30.1856
6     12     0.56          115.2             0.406              471.61                     29.887
6     12     0.56          115.2             0.4116              464.033                     29.646
6     12     0.56          115.2             0.4172              562.522                     32.6408
6     12     0.56          115.2             0.4228              568.204                     32.8053
6     12     0.56          115.2             0.4284              598.508                     33.6687
6     12     0.56          115.2             0.434              570.098                     32.8599
6     12     0.56          115.2             0.4396              609.873                     33.9869
6     12     0.56          115.2             0.4452              681.845                     35.9364
6     12     0.56          115.2             0.4508              657.223                     35.2816
6     12     0.56          115.2             0.4564              702.679                     36.4813
6     12     0.56          115.2             0.462              774.652                     38.3041
6     12     0.56          115.2             0.4676              687.527                     36.0858
6     12     0.56          115.2             0.4732              706.467                     36.5795
6     12     0.56          115.2             0.4788              672.375                     35.686
6     12     0.56          115.2             0.4844              696.997                     36.3335
6     12     0.56          115.2             0.49              725.407                     37.0666
6     12     0.56          115.2             0.4956              638.283                     34.7695
6     12     0.56          115.2             0.5012              700.785                     36.4321
6     12     0.56          115.2             0.5068              615.555                     34.1448
6     12     0.56          115.2             0.5124              662.905                     35.4338
6     12     0.56          115.2             0.518              664.799                     35.4843
6     12     0.56          115.2             0.5236              581.462                     33.1858
6     12     0.56          115.2             0.5292              570.098                     32.8599
6     12     0.56          115.2             0.5348              475.398                     30.0068
6     12     0.56          115.2             0.5404              518.96                     31.3515
6     12     0.56          115.2             0.546              335.241                     25.1982
6     12     0.56          115.2             0.5516              0                     0
*******************************************************************************************************
 Average angle 115.18 +- 0.971539 deg 
 Average E' 0.149223 +- 0.0012587 GeV 
