*******************************************************************************************************
Z     A     E(GeV)     Theta(deg)     Energy Loss(GeV)     Sigma(#mub/sr/GeV)     ERROR     Citation     
*******************************************************************************************************
6     12     0.4          61.1667             0.002              0                     0
6     12     0.4          61.1667             0.006              0                     0
6     12     0.4          61.1667             0.01              0                     0
6     12     0.4          61.1667             0.014              2.39708                     2.39708
6     12     0.4          61.1667             0.018              2.39708                     2.39708
6     12     0.4          61.1667             0.022              2.39708                     2.39708
6     12     0.4          61.1667             0.026              16.7796                     6.34208
6     12     0.4          61.1667             0.03              2.39708                     2.39708
6     12     0.4          61.1667             0.034              4.79417                     3.38999
6     12     0.4          61.1667             0.038              45.5446                     10.4486
6     12     0.4          61.1667             0.042              685.566                     40.5383
6     12     0.4          61.1667             0.046              2008.76                     69.3913
6     12     0.4          61.1667             0.05              3962.38                     97.4584
6     12     0.4          61.1667             0.054              6594.37                     125.727
6     12     0.4          61.1667             0.058              8629.5                     143.825
6     12     0.4          61.1667             0.062              9962.28                     154.533
6     12     0.4          61.1667             0.066              11208.8                     163.916
6     12     0.4          61.1667             0.07              12632.6                     174.016
6     12     0.4          61.1667             0.074              14006.2                     183.232
6     12     0.4          61.1667             0.078              15099.2                     190.247
6     12     0.4          61.1667             0.082              15583.4                     193.274
6     12     0.4          61.1667             0.086              16777.2                     200.54
6     12     0.4          61.1667             0.09              16628.6                     199.65
6     12     0.4          61.1667             0.094              16484.7                     198.785
6     12     0.4          61.1667             0.098              16098.8                     196.444
6     12     0.4          61.1667             0.102              15305.4                     191.542
6     12     0.4          61.1667             0.106              14691.7                     187.663
6     12     0.4          61.1667             0.11              13785.6                     181.784
6     12     0.4          61.1667             0.114              12872.3                     175.659
6     12     0.4          61.1667             0.118              12107.7                     170.362
6     12     0.4          61.1667             0.122              11441.3                     165.607
6     12     0.4          61.1667             0.126              10269.1                     156.895
6     12     0.4          61.1667             0.13              9463.68                     150.616
6     12     0.4          61.1667             0.134              8864.41                     145.769
6     12     0.4          61.1667             0.138              8157.27                     139.834
6     12     0.4          61.1667             0.142              7088.17                     130.349
6     12     0.4          61.1667             0.146              6488.9                     124.717
6     12     0.4          61.1667             0.15              6052.63                     120.452
6     12     0.4          61.1667             0.154              5216.05                     111.818
6     12     0.4          61.1667             0.158              4398.65                     102.684
6     12     0.4          61.1667             0.162              4007.92                     98.0169
6     12     0.4          61.1667             0.166              3509.33                     91.7178
6     12     0.4          61.1667             0.17              2852.53                     82.6907
6     12     0.4          61.1667             0.174              2219.7                     72.9438
6     12     0.4          61.1667             0.178              2039.92                     69.9275
6     12     0.4          61.1667             0.182              1529.34                     60.5471
6     12     0.4          61.1667             0.186              1325.59                     56.3697
6     12     0.4          61.1667             0.19              980.407                     48.478
6     12     0.4          61.1667             0.194              752.684                     42.4764
6     12     0.4          61.1667             0.198              690.36                     40.6798
6     12     0.4          61.1667             0.202              572.903                     37.058
6     12     0.4          61.1667             0.206              541.741                     36.0361
6     12     0.4          61.1667             0.21              577.697                     37.2127
6     12     0.4          61.1667             0.214              587.285                     37.5203
6     12     0.4          61.1667             0.218              522.564                     35.3925
6     12     0.4          61.1667             0.222              632.83                     38.948
6     12     0.4          61.1667             0.226              637.624                     39.0952
6     12     0.4          61.1667             0.23              644.815                     39.3151
6     12     0.4          61.1667             0.234              663.992                     39.8954
6     12     0.4          61.1667             0.238              723.919                     41.6569
6     12     0.4          61.1667             0.242              752.684                     42.4764
6     12     0.4          61.1667             0.246              767.066                     42.8803
6     12     0.4          61.1667             0.25              834.185                     44.717
6     12     0.4          61.1667             0.254              877.332                     45.8589
6     12     0.4          61.1667             0.258              870.141                     45.6706
6     12     0.4          61.1667             0.262              846.17                     45.0371
6     12     0.4          61.1667             0.266              1021.16                     49.4752
6     12     0.4          61.1667             0.27              954.039                     47.8216
6     12     0.4          61.1667             0.274              1129.03                     52.0228
6     12     0.4          61.1667             0.278              1239.29                     54.504
6     12     0.4          61.1667             0.282              1313.6                     56.1143
6     12     0.4          61.1667             0.286              1443.04                     58.8141
6     12     0.4          61.1667             0.29              1495.78                     59.8791
6     12     0.4          61.1667             0.294              1586.87                     61.6754
6     12     0.4          61.1667             0.298              1816.99                     65.996
6     12     0.4          61.1667             0.302              1970.4                     68.7257
6     12     0.4          61.1667             0.306              2296.41                     74.1935
6     12     0.4          61.1667             0.31              2469                     76.931
6     12     0.4          61.1667             0.314              2521.73                     77.7483
6     12     0.4          61.1667             0.318              2799.79                     81.9227
6     12     0.4          61.1667             0.322              3272.02                     88.5624
6     12     0.4          61.1667             0.326              3425.43                     90.6148
6     12     0.4          61.1667             0.33              3691.51                     94.0683
6     12     0.4          61.1667             0.334              4046.28                     98.4848
6     12     0.4          61.1667             0.338              4302.76                     101.558
6     12     0.4          61.1667             0.342              4813.34                     107.415
6     12     0.4          61.1667             0.346              5163.32                     111.251
6     12     0.4          61.1667             0.35              4432.21                     103.075
6     12     0.4          61.1667             0.354              493.799                     34.4046
6     12     0.4          61.1667             0.358              0                     0
6     12     0.4          61.1667             0.362              0                     0
6     12     0.4          61.1667             0.366              0                     0
6     12     0.4          61.1667             0.37              0                     0
6     12     0.4          61.1667             0.374              0                     0
6     12     0.4          61.1667             0.378              0                     0
6     12     0.4          61.1667             0.382              0                     0
6     12     0.4          61.1667             0.386              0                     0
6     12     0.4          61.1667             0.39              0                     0
6     12     0.4          61.1667             0.394              0                     0
*******************************************************************************************************
 Average angle 61.1315 +- 0.149407 deg 
 Average E' 0.261283 +- 0.000638585 GeV 
