*******************************************************************************************************
Z     A     E(GeV)     Theta(deg)     Energy Loss(GeV)     Sigma(#mub/sr/GeV)     ERROR     Citation     
*******************************************************************************************************
6     12     0.32          130             0.0016              0                     0
6     12     0.32          130             0.0048              0                     0
6     12     0.32          130             0.008              0                     0
6     12     0.32          130             0.0112              0                     0
6     12     0.32          130             0.0144              0                     0
6     12     0.32          130             0.0176              0                     0
6     12     0.32          130             0.0208              3.06706                     3.06706
6     12     0.32          130             0.024              3.06706                     3.06706
6     12     0.32          130             0.0272              12.2683                     6.13413
6     12     0.32          130             0.0304              9.20119                     5.31231
6     12     0.32          130             0.0336              15.3353                     6.85816
6     12     0.32          130             0.0368              27.6036                     9.20119
6     12     0.32          130             0.04              18.4024                     7.51274
6     12     0.32          130             0.0432              30.6706                     9.69891
6     12     0.32          130             0.0464              52.1401                     12.6458
6     12     0.32          130             0.0496              76.6766                     15.3353
6     12     0.32          130             0.0528              61.3413                     13.7163
6     12     0.32          130             0.056              101.213                     17.6189
6     12     0.32          130             0.0592              88.9448                     16.5166
6     12     0.32          130             0.0624              134.951                     20.3446
6     12     0.32          130             0.0656              202.426                     24.9169
6     12     0.32          130             0.0688              285.237                     29.5777
6     12     0.32          130             0.072              343.511                     32.4587
6     12     0.32          130             0.0752              438.59                     36.6767
6     12     0.32          130             0.0784              463.127                     37.6887
6     12     0.32          130             0.0816              512.2                     39.6352
6     12     0.32          130             0.0848              677.821                     45.5952
6     12     0.32          130             0.088              849.576                     51.0461
6     12     0.32          130             0.0912              966.125                     54.435
6     12     0.32          130             0.0944              999.863                     55.3773
6     12     0.32          130             0.0976              1214.56                     61.0338
6     12     0.32          130             0.1008              1318.84                     63.6
6     12     0.32          130             0.104              1420.05                     65.9953
6     12     0.32          130             0.1072              1438.45                     66.4216
6     12     0.32          130             0.1104              1551.93                     68.9919
6     12     0.32          130             0.1136              1536.6                     68.6502
6     12     0.32          130             0.1168              1827.97                     74.8766
6     12     0.32          130             0.12              1969.05                     77.7124
6     12     0.32          130             0.1232              1999.73                     78.3153
6     12     0.32          130             0.1264              1913.85                     76.6152
6     12     0.32          130             0.1296              2128.54                     80.7983
6     12     0.32          130             0.1328              2113.21                     80.5068
6     12     0.32          130             0.136              1993.59                     78.1951
6     12     0.32          130             0.1392              1999.73                     78.3153
6     12     0.32          130             0.1424              1781.96                     73.9283
6     12     0.32          130             0.1456              1886.24                     76.0607
6     12     0.32          130             0.1488              1947.59                     77.2876
6     12     0.32          130             0.152              1647.01                     71.0739
6     12     0.32          130             0.1552              1628.61                     70.6757
6     12     0.32          130             0.1584              1604.07                     70.1413
6     12     0.32          130             0.1616              1444.59                     66.563
6     12     0.32          130             0.1648              1441.52                     66.4923
6     12     0.32          130             0.168              1395.51                     65.4227
6     12     0.32          130             0.1712              1165.48                     59.7881
6     12     0.32          130             0.1744              1076.54                     57.4614
6     12     0.32          130             0.1776              1094.94                     57.9505
6     12     0.32          130             0.1808              923.186                     53.2116
6     12     0.32          130             0.184              990.661                     55.1219
6     12     0.32          130             0.1872              821.973                     50.21
6     12     0.32          130             0.1904              736.095                     47.5147
6     12     0.32          130             0.1936              699.29                     46.3116
6     12     0.32          130             0.1968              585.809                     42.3877
6     12     0.32          130             0.2              527.535                     40.2242
6     12     0.32          130             0.2032              527.535                     40.2242
6     12     0.32          130             0.2064              475.395                     38.1846
6     12     0.32          130             0.2096              358.846                     33.1754
6     12     0.32          130             0.2128              297.505                     30.2071
6     12     0.32          130             0.216              266.834                     28.6077
6     12     0.32          130             0.2192              239.231                     27.0876
6     12     0.32          130             0.2224              282.17                     29.4182
6     12     0.32          130             0.2256              199.359                     24.7275
6     12     0.32          130             0.2288              199.359                     24.7275
6     12     0.32          130             0.232              233.097                     26.738
6     12     0.32          130             0.2352              174.823                     23.1558
6     12     0.32          130             0.2384              217.761                     25.8435
6     12     0.32          130             0.2416              223.896                     26.205
6     12     0.32          130             0.2448              168.688                     22.7459
6     12     0.32          130             0.248              245.365                     27.4326
6     12     0.32          130             0.2512              199.359                     24.7275
6     12     0.32          130             0.2544              294.438                     30.051
6     12     0.32          130             0.2576              285.237                     29.5777
6     12     0.32          130             0.2608              328.176                     31.7259
6     12     0.32          130             0.264              325.109                     31.5773
6     12     0.32          130             0.2672              346.578                     32.6033
6     12     0.32          130             0.2704              426.322                     36.1601
6     12     0.32          130             0.2736              521.401                     39.9896
6     12     0.32          130             0.2768              545.937                     40.9197
6     12     0.32          130             0.28              665.553                     45.1807
6     12     0.32          130             0.2832              699.29                     46.3116
6     12     0.32          130             0.2864              745.296                     47.8108
6     12     0.32          130             0.2896              963.058                     54.3485
6     12     0.32          130             0.2928              1229.89                     61.4179
6     12     0.32          130             0.296              1392.45                     65.3508
6     12     0.32          130             0.2992              1591.81                     69.8725
6     12     0.32          130             0.3024              113.481                     18.6562
6     12     0.32          130             0.3056              0                     0
6     12     0.32          130             0.3088              0                     0
6     12     0.32          130             0.312              0                     0
6     12     0.32          130             0.3152              0                     0
*******************************************************************************************************
 Average angle 129.972 +- 0.866653 deg 
 Average E' 0.156711 +- 0.00104495 GeV 
