*******************************************************************************************************
Z     A     E(GeV)     Theta(deg)     Energy Loss(GeV)     Sigma(#mub/sr/GeV)     ERROR     Citation     
*******************************************************************************************************
6     12     0.24          161.333             0.0012              16.2154                     11.466
6     12     0.24          161.333             0.0036              48.6462                     19.8597
6     12     0.24          161.333             0.006              64.8616                     22.932
6     12     0.24          161.333             0.0084              89.1847                     26.8902
6     12     0.24          161.333             0.0108              56.7539                     21.451
6     12     0.24          161.333             0.0132              16.2154                     11.466
6     12     0.24          161.333             0.0156              89.1847                     26.8902
6     12     0.24          161.333             0.018              64.8616                     22.932
6     12     0.24          161.333             0.0204              129.723                     32.4308
6     12     0.24          161.333             0.0228              81.077                     25.6388
6     12     0.24          161.333             0.0252              81.077                     25.6388
6     12     0.24          161.333             0.0276              56.7539                     21.451
6     12     0.24          161.333             0.03              145.939                     34.3981
6     12     0.24          161.333             0.0324              162.154                     36.2587
6     12     0.24          161.333             0.0348              121.616                     31.401
6     12     0.24          161.333             0.0372              137.831                     33.4289
6     12     0.24          161.333             0.0396              121.616                     31.401
6     12     0.24          161.333             0.042              186.477                     38.8832
6     12     0.24          161.333             0.0444              267.554                     46.5752
6     12     0.24          161.333             0.0468              291.877                     48.6462
6     12     0.24          161.333             0.0492              356.739                     53.7804
6     12     0.24          161.333             0.0516              510.785                     64.3529
6     12     0.24          161.333             0.054              599.97                     69.7451
6     12     0.24          161.333             0.0564              883.739                     84.6469
6     12     0.24          161.333             0.0588              964.816                     88.4446
6     12     0.24          161.333             0.0612              1151.29                     96.6144
6     12     0.24          161.333             0.0636              1264.8                     101.265
6     12     0.24          161.333             0.066              1670.19                     116.367
6     12     0.24          161.333             0.0684              1483.71                     109.679
6     12     0.24          161.333             0.0708              1621.54                     114.66
6     12     0.24          161.333             0.0732              1921.53                     124.816
6     12     0.24          161.333             0.0756              1986.39                     126.906
6     12     0.24          161.333             0.078              2116.11                     130.984
6     12     0.24          161.333             0.0804              2497.17                     142.29
6     12     0.24          161.333             0.0828              2610.68                     145.487
6     12     0.24          161.333             0.0852              2594.46                     145.035
6     12     0.24          161.333             0.0876              2659.33                     146.837
6     12     0.24          161.333             0.09              2707.97                     148.174
6     12     0.24          161.333             0.0924              2878.23                     152.761
6     12     0.24          161.333             0.0948              2813.37                     151.03
6     12     0.24          161.333             0.0972              2724.19                     148.617
6     12     0.24          161.333             0.0996              2691.76                     147.729
6     12     0.24          161.333             0.102              2772.83                     149.938
6     12     0.24          161.333             0.1044              2797.16                     150.594
6     12     0.24          161.333             0.1068              2545.82                     143.669
6     12     0.24          161.333             0.1092              2651.22                     146.613
6     12     0.24          161.333             0.1116              2740.4                     149.058
6     12     0.24          161.333             0.114              2659.33                     146.837
6     12     0.24          161.333             0.1164              2367.45                     138.544
6     12     0.24          161.333             0.1188              2472.85                     141.595
6     12     0.24          161.333             0.1212              2132.33                     131.485
6     12     0.24          161.333             0.1236              2059.36                     129.215
6     12     0.24          161.333             0.126              1994.49                     127.164
6     12     0.24          161.333             0.1284              1840.45                     122.155
6     12     0.24          161.333             0.1308              1840.45                     122.155
6     12     0.24          161.333             0.1332              1808.02                     121.074
6     12     0.24          161.333             0.1356              1613.43                     114.373
6     12     0.24          161.333             0.138              1475.6                     109.379
6     12     0.24          161.333             0.1404              1581                     113.218
6     12     0.24          161.333             0.1428              1232.37                     99.9585
6     12     0.24          161.333             0.1452              1208.05                     98.9671
6     12     0.24          161.333             0.1476              1037.79                     91.7282
6     12     0.24          161.333             0.15              875.632                     84.2577
6     12     0.24          161.333             0.1524              932.386                     86.9454
6     12     0.24          161.333             0.1548              875.632                     84.2577
6     12     0.24          161.333             0.1572              778.339                     79.4389
6     12     0.24          161.333             0.1596              599.97                     69.7451
6     12     0.24          161.333             0.162              583.754                     68.7961
6     12     0.24          161.333             0.1644              527.001                     65.3664
6     12     0.24          161.333             0.1668              332.416                     51.9146
6     12     0.24          161.333             0.1692              267.554                     46.5752
6     12     0.24          161.333             0.1716              251.339                     45.1418
6     12     0.24          161.333             0.174              162.154                     36.2587
6     12     0.24          161.333             0.1764              97.2924                     28.0859
6     12     0.24          161.333             0.1788              129.723                     32.4308
6     12     0.24          161.333             0.1812              129.723                     32.4308
6     12     0.24          161.333             0.1836              121.616                     31.401
6     12     0.24          161.333             0.186              113.508                     30.3362
6     12     0.24          161.333             0.1884              97.2924                     28.0859
6     12     0.24          161.333             0.1908              145.939                     34.3981
6     12     0.24          161.333             0.1932              56.7539                     21.451
6     12     0.24          161.333             0.1956              113.508                     30.3362
6     12     0.24          161.333             0.198              145.939                     34.3981
6     12     0.24          161.333             0.2004              81.077                     25.6388
6     12     0.24          161.333             0.2028              81.077                     25.6388
6     12     0.24          161.333             0.2052              121.616                     31.401
6     12     0.24          161.333             0.2076              137.831                     33.4289
6     12     0.24          161.333             0.21              89.1847                     26.8902
6     12     0.24          161.333             0.2124              81.077                     25.6388
6     12     0.24          161.333             0.2148              89.1847                     26.8902
6     12     0.24          161.333             0.2172              81.077                     25.6388
6     12     0.24          161.333             0.2196              8.1077                     8.1077
6     12     0.24          161.333             0.222              0                     0
6     12     0.24          161.333             0.2244              0                     0
6     12     0.24          161.333             0.2268              0                     0
6     12     0.24          161.333             0.2292              0                     0
6     12     0.24          161.333             0.2316              0                     0
6     12     0.24          161.333             0.234              0                     0
6     12     0.24          161.333             0.2364              0                     0
*******************************************************************************************************
 Average angle 161.288 +- 1.51326 deg 
 Average E' 0.13505 +- 0.00126709 GeV 
