*******************************************************************************************************
Z     A     E(GeV)     Theta(deg)     Energy Loss(GeV)     Sigma(#mub/sr/GeV)     ERROR     Citation     
*******************************************************************************************************
6     12     0.62          42.5             0.0031              0                     0
6     12     0.62          42.5             0.0093              0                     0
6     12     0.62          42.5             0.0155              0                     0
6     12     0.62          42.5             0.0217              0                     0
6     12     0.62          42.5             0.0279              0                     0
6     12     0.62          42.5             0.0341              0                     0
6     12     0.62          42.5             0.0403              0                     0
6     12     0.62          42.5             0.0465              416.058                     31.3616
6     12     0.62          42.5             0.0527              2467.98                     76.3821
6     12     0.62          42.5             0.0589              5174.73                     110.602
6     12     0.62          42.5             0.0651              7162.82                     130.126
6     12     0.62          42.5             0.0713              9328.22                     148.498
6     12     0.62          42.5             0.0775              11148.5                     162.341
6     12     0.62          42.5             0.0837              13335.1                     177.55
6     12     0.62          42.5             0.0899              14888.3                     187.604
6     12     0.62          42.5             0.0961              16715.6                     198.784
6     12     0.62          42.5             0.1023              18006.3                     206.316
6     12     0.62          42.5             0.1085              18015.8                     206.37
6     12     0.62          42.5             0.1147              17743.9                     204.808
6     12     0.62          42.5             0.1209              16573.8                     197.939
6     12     0.62          42.5             0.1271              15469.8                     191.233
6     12     0.62          42.5             0.1333              14448.6                     184.813
6     12     0.62          42.5             0.1395              13460.4                     178.382
6     12     0.62          42.5             0.1457              12136.6                     169.383
6     12     0.62          42.5             0.1519              10864.8                     160.262
6     12     0.62          42.5             0.1581              9328.22                     148.498
6     12     0.62          42.5             0.1643              8418.09                     141.068
6     12     0.62          42.5             0.1705              7633.25                     134.331
6     12     0.62          42.5             0.1767              6437.09                     123.357
6     12     0.62          42.5             0.1829              5902.83                     118.127
6     12     0.62          42.5             0.1891              4690.11                     105.296
6     12     0.62          42.5             0.1953              4066.03                     98.0406
6     12     0.62          42.5             0.2015              3129.89                     86.0173
6     12     0.62          42.5             0.2077              2645.28                     79.0782
6     12     0.62          42.5             0.2139              2210.31                     72.2849
6     12     0.62          42.5             0.2201              1912.45                     67.2382
6     12     0.62          42.5             0.2263              1564.95                     60.8234
6     12     0.62          42.5             0.2325              1307.27                     55.591
6     12     0.62          42.5             0.2387              1158.34                     52.3287
6     12     0.62          42.5             0.2449              999.959                     48.6196
6     12     0.62          42.5             0.2511              1054.33                     49.924
6     12     0.62          42.5             0.2573              1255.27                     54.474
6     12     0.62          42.5             0.2635              1215.08                     53.5949
6     12     0.62          42.5             0.2697              1314.37                     55.7415
6     12     0.62          42.5             0.2759              1368.74                     56.8828
6     12     0.62          42.5             0.2821              1546.04                     60.4548
6     12     0.62          42.5             0.2883              1515.3                     59.8509
6     12     0.62          42.5             0.2945              1784.8                     64.9554
6     12     0.62          42.5             0.3007              1919.54                     67.3627
6     12     0.62          42.5             0.3069              2056.65                     69.727
6     12     0.62          42.5             0.3131              2148.85                     71.2728
6     12     0.62          42.5             0.3193              2515.26                     77.1103
6     12     0.62          42.5             0.3255              2737.48                     80.4444
6     12     0.62          42.5             0.3317              3032.97                     84.6749
6     12     0.62          42.5             0.3379              3174.81                     86.6323
6     12     0.62          42.5             0.3441              3600.32                     92.2554
6     12     0.62          42.5             0.3503              3673.61                     93.1895
6     12     0.62          42.5             0.3565              4092.03                     98.3536
6     12     0.62          42.5             0.3627              4333.15                     101.21
6     12     0.62          42.5             0.3689              4283.51                     100.628
6     12     0.62          42.5             0.3751              4581.37                     104.068
6     12     0.62          42.5             0.3813              4758.67                     106.063
6     12     0.62          42.5             0.3875              4765.76                     106.142
6     12     0.62          42.5             0.3937              4839.04                     106.955
6     12     0.62          42.5             0.3999              5039.98                     109.153
6     12     0.62          42.5             0.4061              5075.44                     109.536
6     12     0.62          42.5             0.4123              4865.05                     107.242
6     12     0.62          42.5             0.4185              4661.75                     104.977
6     12     0.62          42.5             0.4247              4631.01                     104.631
6     12     0.62          42.5             0.4309              4642.83                     104.764
6     12     0.62          42.5             0.4371              4406.44                     102.062
6     12     0.62          42.5             0.4433              4224.41                     99.9318
6     12     0.62          42.5             0.4495              4368.61                     101.623
6     12     0.62          42.5             0.4557              4087.3                     98.2967
6     12     0.62          42.5             0.4619              3874.54                     95.7042
6     12     0.62          42.5             0.4681              3683.06                     93.3094
6     12     0.62          42.5             0.4743              3564.86                     91.7999
6     12     0.62          42.5             0.4805              3515.22                     91.1585
6     12     0.62          42.5             0.4867              3359.2                     89.1125
6     12     0.62          42.5             0.4929              3115.71                     85.8221
6     12     0.62          42.5             0.4991              3077.89                     85.2996
6     12     0.62          42.5             0.5053              2777.66                     81.0327
6     12     0.62          42.5             0.5115              2784.75                     81.1361
6     12     0.62          42.5             0.5177              2694.92                     79.8168
6     12     0.62          42.5             0.5239              2401.79                     75.3509
6     12     0.62          42.5             0.5301              2269.41                     73.2449
6     12     0.62          42.5             0.5363              2373.42                     74.9046
6     12     0.62          42.5             0.5425              2077.93                     70.0868
6     12     0.62          42.5             0.5487              1950.27                     67.8998
6     12     0.62          42.5             0.5549              1697.33                     63.3438
6     12     0.62          42.5             0.5611              427.878                     31.8039
6     12     0.62          42.5             0.5673              0                     0
6     12     0.62          42.5             0.5735              0                     0
6     12     0.62          42.5             0.5797              0                     0
6     12     0.62          42.5             0.5859              0                     0
6     12     0.62          42.5             0.5921              0                     0
6     12     0.62          42.5             0.5983              0                     0
6     12     0.62          42.5             0.6045              0                     0
6     12     0.62          42.5             0.6107              0                     0
*******************************************************************************************************
 Average angle 42.4493 +- 0.0986202 deg 
 Average E' 0.390482 +- 0.000907186 GeV 
