*******************************************************************************************************
Z     A     E(GeV)     Theta(deg)     Energy Loss(GeV)     Sigma(#mub/sr/GeV)     ERROR     Citation     
*******************************************************************************************************
6     12     0.62          75.5             0.0031              0                     0
6     12     0.62          75.5             0.0093              0                     0
6     12     0.62          75.5             0.0155              0                     0
6     12     0.62          75.5             0.0217              0                     0
6     12     0.62          75.5             0.0279              0                     0
6     12     0.62          75.5             0.0341              0                     0
6     12     0.62          75.5             0.0403              0                     0
6     12     0.62          75.5             0.0465              0                     0
6     12     0.62          75.5             0.0527              0                     0
6     12     0.62          75.5             0.0589              0                     0
6     12     0.62          75.5             0.0651              0                     0
6     12     0.62          75.5             0.0713              0                     0
6     12     0.62          75.5             0.0775              0                     0
6     12     0.62          75.5             0.0837              0                     0
6     12     0.62          75.5             0.0899              0                     0
6     12     0.62          75.5             0.0961              0                     0
6     12     0.62          75.5             0.1023              0                     0
6     12     0.62          75.5             0.1085              0                     0
6     12     0.62          75.5             0.1147              0                     0
6     12     0.62          75.5             0.1209              16.4962                     5.21655
6     12     0.62          75.5             0.1271              37.9412                     7.91129
6     12     0.62          75.5             0.1333              61.0359                     10.0342
6     12     0.62          75.5             0.1395              115.473                     13.8017
6     12     0.62          75.5             0.1457              168.261                     16.6603
6     12     0.62          75.5             0.1519              257.34                     20.6037
6     12     0.62          75.5             0.1581              329.924                     23.3291
6     12     0.62          75.5             0.1643              382.711                     25.1262
6     12     0.62          75.5             0.1705              447.046                     27.1561
6     12     0.62          75.5             0.1767              565.819                     30.5514
6     12     0.62          75.5             0.1829              555.921                     30.283
6     12     0.62          75.5             0.1891              673.044                     33.3206
6     12     0.62          75.5             0.1953              743.978                     35.0325
6     12     0.62          75.5             0.2015              834.707                     37.1072
6     12     0.62          75.5             0.2077              1047.51                     41.5691
6     12     0.62          75.5             0.2139              958.428                     39.7623
6     12     0.62          75.5             0.2201              979.873                     40.2047
6     12     0.62          75.5             0.2263              998.019                     40.5752
6     12     0.62          75.5             0.2325              994.72                     40.5081
6     12     0.62          75.5             0.2387              1011.22                     40.8426
6     12     0.62          75.5             0.2449              974.924                     40.103
6     12     0.62          75.5             0.2511              945.231                     39.4876
6     12     0.62          75.5             0.2573              849.553                     37.4358
6     12     0.62          75.5             0.2635              862.75                     37.7254
6     12     0.62          75.5             0.2697              796.765                     36.2541
6     12     0.62          75.5             0.2759              717.584                     34.4055
6     12     0.62          75.5             0.2821              719.233                     34.445
6     12     0.62          75.5             0.2883              651.599                     32.7855
6     12     0.62          75.5             0.2945              687.891                     33.6862
6     12     0.62          75.5             0.3007              628.504                     32.1993
6     12     0.62          75.5             0.3069              616.957                     31.9021
6     12     0.62          75.5             0.3131              615.307                     31.8594
6     12     0.62          75.5             0.3193              583.965                     31.0374
6     12     0.62          75.5             0.3255              605.41                     31.6021
6     12     0.62          75.5             0.3317              565.819                     30.5514
6     12     0.62          75.5             0.3379              610.359                     31.731
6     12     0.62          75.5             0.3441              593.862                     31.2993
6     12     0.62          75.5             0.3503              602.111                     31.5159
6     12     0.62          75.5             0.3565              625.205                     32.1146
6     12     0.62          75.5             0.3627              628.504                     32.1993
6     12     0.62          75.5             0.3689              649.949                     32.744
6     12     0.62          75.5             0.3751              724.182                     34.5633
6     12     0.62          75.5             0.3813              691.19                     33.7668
6     12     0.62          75.5             0.3875              819.86                     36.7758
6     12     0.62          75.5             0.3937              870.998                     37.9053
6     12     0.62          75.5             0.3999              880.896                     38.1201
6     12     0.62          75.5             0.4061              966.676                     39.933
6     12     0.62          75.5             0.4123              1054.11                     41.6998
6     12     0.62          75.5             0.4185              960.078                     39.7965
6     12     0.62          75.5             0.4247              1062.35                     41.8626
6     12     0.62          75.5             0.4309              1138.24                     43.3319
6     12     0.62          75.5             0.4371              1113.49                     42.8583
6     12     0.62          75.5             0.4433              1154.73                     43.6448
6     12     0.62          75.5             0.4495              1131.64                     43.2061
6     12     0.62          75.5             0.4557              1222.37                     44.9048
6     12     0.62          75.5             0.4619              1106.89                     42.7312
6     12     0.62          75.5             0.4681              1082.15                     42.2508
6     12     0.62          75.5             0.4743              1044.21                     41.5035
6     12     0.62          75.5             0.4805              1097                     42.5397
6     12     0.62          75.5             0.4867              981.523                     40.2385
6     12     0.62          75.5             0.4929              998.019                     40.5752
6     12     0.62          75.5             0.4991              950.18                     39.5908
6     12     0.62          75.5             0.5053              1009.57                     40.8093
6     12     0.62          75.5             0.5115              905.64                     38.6518
6     12     0.62          75.5             0.5177              847.904                     37.3994
6     12     0.62          75.5             0.5239              892.443                     38.3691
6     12     0.62          75.5             0.5301              875.947                     38.0129
6     12     0.62          75.5             0.5363              821.51                     36.8127
6     12     0.62          75.5             0.5425              783.569                     35.9526
6     12     0.62          75.5             0.5487              691.19                     33.7668
6     12     0.62          75.5             0.5549              740.678                     34.9548
6     12     0.62          75.5             0.5611              646.65                     32.6608
6     12     0.62          75.5             0.5673              659.847                     32.9924
6     12     0.62          75.5             0.5735              679.643                     33.4836
6     12     0.62          75.5             0.5797              577.366                     30.8615
6     12     0.62          75.5             0.5859              580.666                     30.9496
6     12     0.62          75.5             0.5921              531.177                     29.6013
6     12     0.62          75.5             0.5983              308.479                     22.5582
6     12     0.62          75.5             0.6045              0                     0
6     12     0.62          75.5             0.6107              0                     0
*******************************************************************************************************
 Average angle 75.4606 +- 0.401352 deg 
 Average E' 0.23902 +- 0.00127128 GeV 
