*******************************************************************************************************
Z     A     E(GeV)     Theta(deg)     Energy Loss(GeV)     Sigma(#mub/sr/GeV)     ERROR     Citation     
*******************************************************************************************************
6     12     0.32          155             0.0016              0                     0
6     12     0.32          155             0.0048              0                     0
6     12     0.32          155             0.008              0                     0
6     12     0.32          155             0.0112              0                     0
6     12     0.32          155             0.0144              0                     0
6     12     0.32          155             0.0176              0                     0
6     12     0.32          155             0.0208              0                     0
6     12     0.32          155             0.024              5.55941                     5.55941
6     12     0.32          155             0.0272              0                     0
6     12     0.32          155             0.0304              5.55941                     5.55941
6     12     0.32          155             0.0336              0                     0
6     12     0.32          155             0.0368              0                     0
6     12     0.32          155             0.04              5.55941                     5.55941
6     12     0.32          155             0.0432              11.1188                     7.86219
6     12     0.32          155             0.0464              5.55941                     5.55941
6     12     0.32          155             0.0496              27.797                     12.4312
6     12     0.32          155             0.0528              11.1188                     7.86219
6     12     0.32          155             0.056              44.4753                     15.7244
6     12     0.32          155             0.0592              44.4753                     15.7244
6     12     0.32          155             0.0624              61.1535                     18.4385
6     12     0.32          155             0.0656              105.629                     24.2329
6     12     0.32          155             0.0688              111.188                     24.8624
6     12     0.32          155             0.072              155.663                     29.4176
6     12     0.32          155             0.0752              161.223                     29.9383
6     12     0.32          155             0.0784              227.936                     35.5976
6     12     0.32          155             0.0816              316.886                     41.9726
6     12     0.32          155             0.0848              400.277                     47.1731
6     12     0.32          155             0.088              316.886                     41.9726
6     12     0.32          155             0.0912              478.109                     51.5558
6     12     0.32          155             0.0944              550.381                     55.3154
6     12     0.32          155             0.0976              578.178                     56.695
6     12     0.32          155             0.1008              633.772                     59.3582
6     12     0.32          155             0.104              794.995                     66.4808
6     12     0.32          155             0.1072              833.911                     68.0885
6     12     0.32          155             0.1104              872.827                     69.6592
6     12     0.32          155             0.1136              1011.81                     75.0005
6     12     0.32          155             0.1168              1173.03                     80.755
6     12     0.32          155             0.12              1200.83                     81.7063
6     12     0.32          155             0.1232              1223.07                     82.4593
6     12     0.32          155             0.1264              1389.85                     87.9019
6     12     0.32          155             0.1296              1384.29                     87.726
6     12     0.32          155             0.1328              1517.72                     91.8565
6     12     0.32          155             0.136              1362.05                     87.0185
6     12     0.32          155             0.1392              1589.99                     94.0181
6     12     0.32          155             0.1424              1556.63                     93.0267
6     12     0.32          155             0.1456              1539.96                     92.527
6     12     0.32          155             0.1488              1495.48                     91.181
6     12     0.32          155             0.152              1317.58                     85.586
6     12     0.32          155             0.1552              1439.89                     89.4702
6     12     0.32          155             0.1584              1273.1                     84.1291
6     12     0.32          155             0.1616              1261.99                     83.7609
6     12     0.32          155             0.1648              1173.03                     80.755
6     12     0.32          155             0.168              1206.39                     81.8952
6     12     0.32          155             0.1712              1145.24                     79.7925
6     12     0.32          155             0.1744              1239.75                     83.0196
6     12     0.32          155             0.1776              1067.41                     77.0334
6     12     0.32          155             0.1808              1006.25                     74.7942
6     12     0.32          155             0.184              906.183                     70.9777
6     12     0.32          155             0.1872              794.995                     66.4808
6     12     0.32          155             0.1904              800.555                     66.7129
6     12     0.32          155             0.1936              683.807                     61.6568
6     12     0.32          155             0.1968              778.317                     65.7798
6     12     0.32          155             0.2              605.975                     58.0419
6     12     0.32          155             0.2032              617.094                     58.572
6     12     0.32          155             0.2064              528.144                     54.1864
6     12     0.32          155             0.2096              505.906                     53.0334
6     12     0.32          155             0.2128              355.802                     44.4753
6     12     0.32          155             0.216              305.767                     41.2297
6     12     0.32          155             0.2192              266.852                     38.5167
6     12     0.32          155             0.2224              205.698                     33.8165
6     12     0.32          155             0.2256              211.257                     34.2705
6     12     0.32          155             0.2288              200.139                     33.3564
6     12     0.32          155             0.232              183.46                     31.9364
6     12     0.32          155             0.2352              122.307                     26.0759
6     12     0.32          155             0.2384              233.495                     36.0291
6     12     0.32          155             0.2416              177.901                     31.4488
6     12     0.32          155             0.2448              255.733                     37.7057
6     12     0.32          155             0.248              189.02                     32.4166
6     12     0.32          155             0.2512              216.817                     34.7185
6     12     0.32          155             0.2544              261.292                     38.1134
6     12     0.32          155             0.2576              216.817                     34.7185
6     12     0.32          155             0.2608              255.733                     37.7057
6     12     0.32          155             0.264              283.53                     39.7021
6     12     0.32          155             0.2672              283.53                     39.7021
6     12     0.32          155             0.2704              444.753                     49.7248
6     12     0.32          155             0.2736              455.871                     50.3426
6     12     0.32          155             0.2768              511.465                     53.324
6     12     0.32          155             0.28              478.109                     51.5558
6     12     0.32          155             0.2832              567.059                     56.1473
6     12     0.32          155             0.2864              533.703                     54.4708
6     12     0.32          155             0.2896              756.079                     64.8333
6     12     0.32          155             0.2928              995.134                     74.3798
6     12     0.32          155             0.296              1200.83                     81.7063
6     12     0.32          155             0.2992              1367.61                     87.1959
6     12     0.32          155             0.3024              1467.68                     90.3297
6     12     0.32          155             0.3056              0                     0
6     12     0.32          155             0.3088              0                     0
6     12     0.32          155             0.312              0                     0
6     12     0.32          155             0.3152              0                     0
*******************************************************************************************************
 Average angle 154.958 +- 1.5642 deg 
 Average E' 0.143904 +- 0.00145261 GeV 
