*******************************************************************************************************
Z     A     E(GeV)     Theta(deg)     Energy Loss(GeV)     Sigma(#mub/sr/GeV)     ERROR     Citation     
*******************************************************************************************************
6     12     0.62          86.5             0.0031              0                     0
6     12     0.62          86.5             0.0093              0                     0
6     12     0.62          86.5             0.0155              0                     0
6     12     0.62          86.5             0.0217              0                     0
6     12     0.62          86.5             0.0279              0                     0
6     12     0.62          86.5             0.0341              0                     0
6     12     0.62          86.5             0.0403              0                     0
6     12     0.62          86.5             0.0465              0                     0
6     12     0.62          86.5             0.0527              0                     0
6     12     0.62          86.5             0.0589              0                     0
6     12     0.62          86.5             0.0651              0                     0
6     12     0.62          86.5             0.0713              0                     0
6     12     0.62          86.5             0.0775              0                     0
6     12     0.62          86.5             0.0837              0                     0
6     12     0.62          86.5             0.0899              0                     0
6     12     0.62          86.5             0.0961              0                     0
6     12     0.62          86.5             0.1023              0                     0
6     12     0.62          86.5             0.1085              0                     0
6     12     0.62          86.5             0.1147              0                     0
6     12     0.62          86.5             0.1209              0                     0
6     12     0.62          86.5             0.1271              0                     0
6     12     0.62          86.5             0.1333              0                     0
6     12     0.62          86.5             0.1395              0                     0
6     12     0.62          86.5             0.1457              4.80017                     2.77138
6     12     0.62          86.5             0.1519              19.2007                     5.54276
6     12     0.62          86.5             0.1581              22.4008                     5.98687
6     12     0.62          86.5             0.1643              41.6015                     8.15873
6     12     0.62          86.5             0.1705              60.8022                     9.86342
6     12     0.62          86.5             0.1767              78.4028                     11.2004
6     12     0.62          86.5             0.1829              107.204                     13.097
6     12     0.62          86.5             0.1891              172.806                     16.6283
6     12     0.62          86.5             0.1953              203.207                     18.0317
6     12     0.62          86.5             0.2015              238.409                     19.5312
6     12     0.62          86.5             0.2077              256.009                     20.2393
6     12     0.62          86.5             0.2139              348.813                     23.6246
6     12     0.62          86.5             0.2201              364.813                     24.1603
6     12     0.62          86.5             0.2263              427.216                     26.1452
6     12     0.62          86.5             0.2325              467.217                     27.3418
6     12     0.62          86.5             0.2387              489.618                     27.9896
6     12     0.62          86.5             0.2449              588.821                     30.6944
6     12     0.62          86.5             0.2511              556.82                     29.8487
6     12     0.62          86.5             0.2573              556.82                     29.8487
6     12     0.62          86.5             0.2635              568.021                     30.1474
6     12     0.62          86.5             0.2697              521.619                     28.8898
6     12     0.62          86.5             0.2759              574.421                     30.3168
6     12     0.62          86.5             0.2821              521.619                     28.8898
6     12     0.62          86.5             0.2883              483.218                     27.806
6     12     0.62          86.5             0.2945              502.418                     28.3531
6     12     0.62          86.5             0.3007              467.217                     27.3418
6     12     0.62          86.5             0.3069              419.215                     25.8992
6     12     0.62          86.5             0.3131              449.616                     26.8219
6     12     0.62          86.5             0.3193              443.216                     26.6303
6     12     0.62          86.5             0.3255              401.615                     25.3497
6     12     0.62          86.5             0.3317              403.215                     25.4001
6     12     0.62          86.5             0.3379              428.816                     26.1941
6     12     0.62          86.5             0.3441              376.014                     24.5284
6     12     0.62          86.5             0.3503              436.816                     26.4373
6     12     0.62          86.5             0.3565              406.415                     25.5007
6     12     0.62          86.5             0.3627              409.615                     25.6009
6     12     0.62          86.5             0.3689              465.617                     27.2949
6     12     0.62          86.5             0.3751              484.818                     27.852
6     12     0.62          86.5             0.3813              500.818                     28.3079
6     12     0.62          86.5             0.3875              484.818                     27.852
6     12     0.62          86.5             0.3937              507.218                     28.4882
6     12     0.62          86.5             0.3999              576.021                     30.359
6     12     0.62          86.5             0.4061              555.22                     29.8058
6     12     0.62          86.5             0.4123              595.222                     30.8608
6     12     0.62          86.5             0.4185              604.822                     31.1087
6     12     0.62          86.5             0.4247              624.023                     31.5986
6     12     0.62          86.5             0.4309              673.624                     32.8304
6     12     0.62          86.5             0.4371              758.428                     34.8357
6     12     0.62          86.5             0.4433              771.228                     35.1285
6     12     0.62          86.5             0.4495              772.828                     35.1649
6     12     0.62          86.5             0.4557              796.829                     35.7068
6     12     0.62          86.5             0.4619              803.229                     35.8499
6     12     0.62          86.5             0.4681              809.629                     35.9924
6     12     0.62          86.5             0.4743              811.229                     36.028
6     12     0.62          86.5             0.4805              827.23                     36.3815
6     12     0.62          86.5             0.4867              849.631                     36.8708
6     12     0.62          86.5             0.4929              793.629                     35.635
6     12     0.62          86.5             0.4991              763.228                     34.9458
6     12     0.62          86.5             0.5053              763.228                     34.9458
6     12     0.62          86.5             0.5115              729.627                     34.1679
6     12     0.62          86.5             0.5177              753.627                     34.7253
6     12     0.62          86.5             0.5239              665.624                     32.6349
6     12     0.62          86.5             0.5301              657.624                     32.4382
6     12     0.62          86.5             0.5363              616.022                     31.3954
6     12     0.62          86.5             0.5425              667.224                     32.6741
6     12     0.62          86.5             0.5487              606.422                     31.1498
6     12     0.62          86.5             0.5549              560.02                     29.9343
6     12     0.62          86.5             0.5611              523.219                     28.9341
6     12     0.62          86.5             0.5673              547.22                     29.5903
6     12     0.62          86.5             0.5735              512.019                     28.6227
6     12     0.62          86.5             0.5797              476.817                     27.6213
6     12     0.62          86.5             0.5859              457.617                     27.0594
6     12     0.62          86.5             0.5921              449.616                     26.8219
6     12     0.62          86.5             0.5983              432.016                     26.2916
6     12     0.62          86.5             0.6045              123.204                     14.0405
6     12     0.62          86.5             0.6107              0                     0
*******************************************************************************************************
 Average angle 86.4737 +- 0.567214 deg 
 Average E' 0.207976 +- 0.0013642 GeV 
