*******************************************************************************************************
Z     A     E(GeV)     Theta(deg)     Energy Loss(GeV)     Sigma(#mub/sr/GeV)     ERROR     Citation     
*******************************************************************************************************
6     12     0.4          102.5             0.002              0                     0
6     12     0.4          102.5             0.006              0                     0
6     12     0.4          102.5             0.01              0                     0
6     12     0.4          102.5             0.014              0                     0
6     12     0.4          102.5             0.018              0                     0
6     12     0.4          102.5             0.022              0                     0
6     12     0.4          102.5             0.026              0                     0
6     12     0.4          102.5             0.03              0                     0
6     12     0.4          102.5             0.034              0                     0
6     12     0.4          102.5             0.038              0                     0
6     12     0.4          102.5             0.042              0                     0
6     12     0.4          102.5             0.046              0                     0
6     12     0.4          102.5             0.05              0                     0
6     12     0.4          102.5             0.054              0                     0
6     12     0.4          102.5             0.058              0                     0
6     12     0.4          102.5             0.062              0                     0
6     12     0.4          102.5             0.066              0                     0
6     12     0.4          102.5             0.07              8.60357                     4.30178
6     12     0.4          102.5             0.074              25.8107                     7.45091
6     12     0.4          102.5             0.078              64.5268                     11.7809
6     12     0.4          102.5             0.082              107.545                     15.2091
6     12     0.4          102.5             0.086              178.524                     19.5956
6     12     0.4          102.5             0.09              238.749                     22.6611
6     12     0.4          102.5             0.094              314.03                     25.9893
6     12     0.4          102.5             0.098              423.726                     30.1892
6     12     0.4          102.5             0.102              507.611                     33.0426
6     12     0.4          102.5             0.106              582.892                     35.4082
6     12     0.4          102.5             0.11              660.324                     37.6867
6     12     0.4          102.5             0.114              830.244                     42.2583
6     12     0.4          102.5             0.118              937.789                     44.9119
6     12     0.4          102.5             0.122              1103.41                     48.7166
6     12     0.4          102.5             0.126              1260.42                     52.0676
6     12     0.4          102.5             0.13              1322.8                     53.3404
6     12     0.4          102.5             0.134              1469.06                     56.212
6     12     0.4          102.5             0.138              1615.32                     58.9439
6     12     0.4          102.5             0.142              1731.47                     61.0262
6     12     0.4          102.5             0.146              1965.92                     65.0267
6     12     0.4          102.5             0.15              1940.1                     64.5984
6     12     0.4          102.5             0.154              2034.74                     66.1552
6     12     0.4          102.5             0.158              1985.27                     65.3461
6     12     0.4          102.5             0.162              2092.82                     67.0927
6     12     0.4          102.5             0.166              2049.8                     66.3995
6     12     0.4          102.5             0.17              1993.88                     65.4875
6     12     0.4          102.5             0.174              1847.62                     63.0399
6     12     0.4          102.5             0.178              1636.83                     59.335
6     12     0.4          102.5             0.182              1628.23                     59.1789
6     12     0.4          102.5             0.186              1656.19                     59.6848
6     12     0.4          102.5             0.19              1555.09                     57.8346
6     12     0.4          102.5             0.194              1430.34                     55.4663
6     12     0.4          102.5             0.198              1434.65                     55.5497
6     12     0.4          102.5             0.202              1305.59                     52.9923
6     12     0.4          102.5             0.206              1131.37                     49.33
6     12     0.4          102.5             0.21              1187.29                     50.5345
6     12     0.4          102.5             0.214              1028.13                     47.0254
6     12     0.4          102.5             0.218              884.017                     43.6053
6     12     0.4          102.5             0.222              927.034                     44.6537
6     12     0.4          102.5             0.226              720.549                     39.3678
6     12     0.4          102.5             0.23              714.096                     39.1911
6     12     0.4          102.5             0.234              617.306                     36.4384
6     12     0.4          102.5             0.238              623.759                     36.6284
6     12     0.4          102.5             0.242              505.46                     32.9726
6     12     0.4          102.5             0.246              488.253                     32.4065
6     12     0.4          102.5             0.25              406.519                     29.5699
6     12     0.4          102.5             0.254              389.311                     28.9373
6     12     0.4          102.5             0.258              363.501                     27.9616
6     12     0.4          102.5             0.262              341.992                     27.1217
6     12     0.4          102.5             0.266              326.936                     26.518
6     12     0.4          102.5             0.27              331.237                     26.6919
6     12     0.4          102.5             0.274              337.69                     26.9506
6     12     0.4          102.5             0.278              348.445                     27.3764
6     12     0.4          102.5             0.282              378.557                     28.5348
6     12     0.4          102.5             0.286              434.48                     30.5699
6     12     0.4          102.5             0.29              436.631                     30.6455
6     12     0.4          102.5             0.294              432.329                     30.4942
6     12     0.4          102.5             0.298              494.705                     32.6199
6     12     0.4          102.5             0.302              514.063                     33.252
6     12     0.4          102.5             0.306              569.986                     35.014
6     12     0.4          102.5             0.31              647.419                     37.3166
6     12     0.4          102.5             0.314              711.945                     39.1321
6     12     0.4          102.5             0.318              729.152                     39.6021
6     12     0.4          102.5             0.322              813.037                     41.8181
6     12     0.4          102.5             0.326              950.694                     45.2199
6     12     0.4          102.5             0.33              1090.5                     48.4309
6     12     0.4          102.5             0.334              1088.35                     48.3831
6     12     0.4          102.5             0.338              1208.8                     50.9902
6     12     0.4          102.5             0.342              1355.06                     53.987
6     12     0.4          102.5             0.346              1477.66                     56.3764
6     12     0.4          102.5             0.35              1737.92                     61.1398
6     12     0.4          102.5             0.354              1768.03                     61.6672
6     12     0.4          102.5             0.358              2004.63                     65.6639
6     12     0.4          102.5             0.362              2056.25                     66.504
6     12     0.4          102.5             0.366              2426.21                     72.2392
6     12     0.4          102.5             0.37              2525.15                     73.6975
6     12     0.4          102.5             0.374              2718.73                     76.4702
6     12     0.4          102.5             0.378              2682.16                     75.9542
6     12     0.4          102.5             0.382              0                     0
6     12     0.4          102.5             0.386              0                     0
6     12     0.4          102.5             0.39              0                     0
6     12     0.4          102.5             0.394              0                     0
*******************************************************************************************************
 Average angle 102.48 +- 0.522109 deg 
 Average E' 0.16146 +- 0.0008226 GeV 
