*******************************************************************************************************
Z     A     E(GeV)     Theta(deg)     Energy Loss(GeV)     Sigma(nb/sr/GeV)     ERROR     Citation     
*******************************************************************************************************
6     12     0.06          126.833             0.0003              0.958666                     0.958666
6     12     0.06          126.833             0.0009              0                     0
6     12     0.06          126.833             0.0015              0.958666                     0.958666
6     12     0.06          126.833             0.0021              0                     0
6     12     0.06          126.833             0.0027              0                     0
6     12     0.06          126.833             0.0033              0                     0
6     12     0.06          126.833             0.0039              0.958666                     0.958666
6     12     0.06          126.833             0.0045              0                     0
6     12     0.06          126.833             0.0051              0                     0
6     12     0.06          126.833             0.0057              0                     0
6     12     0.06          126.833             0.0063              0                     0
6     12     0.06          126.833             0.0069              0                     0
6     12     0.06          126.833             0.0075              0.958666                     0.958666
6     12     0.06          126.833             0.0081              0                     0
6     12     0.06          126.833             0.0087              0                     0
6     12     0.06          126.833             0.0093              0                     0
6     12     0.06          126.833             0.0099              0                     0
6     12     0.06          126.833             0.0105              0                     0
6     12     0.06          126.833             0.0111              0                     0
6     12     0.06          126.833             0.0117              0                     0
6     12     0.06          126.833             0.0123              0                     0
6     12     0.06          126.833             0.0129              0                     0
6     12     0.06          126.833             0.0135              0                     0
6     12     0.06          126.833             0.0141              0                     0
6     12     0.06          126.833             0.0147              0                     0
6     12     0.06          126.833             0.0153              0                     0
6     12     0.06          126.833             0.0159              0                     0
6     12     0.06          126.833             0.0165              0                     0
6     12     0.06          126.833             0.0171              0.958666                     0.958666
6     12     0.06          126.833             0.0177              6.71066                     2.53639
6     12     0.06          126.833             0.0183              9.58666                     3.03157
6     12     0.06          126.833             0.0189              12.4627                     3.45652
6     12     0.06          126.833             0.0195              28.76                     5.25083
6     12     0.06          126.833             0.0201              38.3467                     6.06314
6     12     0.06          126.833             0.0207              42.1813                     6.35907
6     12     0.06          126.833             0.0213              46.9747                     6.71066
6     12     0.06          126.833             0.0219              52.7267                     7.10966
6     12     0.06          126.833             0.0225              52.7267                     7.10966
6     12     0.06          126.833             0.0231              58.4786                     7.48742
6     12     0.06          126.833             0.0237              60.396                     7.60918
6     12     0.06          126.833             0.0243              52.7267                     7.10966
6     12     0.06          126.833             0.0249              53.6853                     7.174
6     12     0.06          126.833             0.0255              60.396                     7.60918
6     12     0.06          126.833             0.0261              51.768                     7.04473
6     12     0.06          126.833             0.0267              46.9747                     6.71066
6     12     0.06          126.833             0.0273              69.9826                     8.19085
6     12     0.06          126.833             0.0279              67.1066                     8.02078
6     12     0.06          126.833             0.0285              76.6933                     8.57457
6     12     0.06          126.833             0.0291              71.9                     8.30229
6     12     0.06          126.833             0.0297              51.768                     7.04473
6     12     0.06          126.833             0.0303              57.52                     7.4258
6     12     0.06          126.833             0.0309              86.28                     9.09471
6     12     0.06          126.833             0.0315              77.652                     8.628
6     12     0.06          126.833             0.0321              70.9413                     8.24676
6     12     0.06          126.833             0.0327              77.652                     8.628
6     12     0.06          126.833             0.0333              105.453                     10.0546
6     12     0.06          126.833             0.0339              92.032                     9.39297
6     12     0.06          126.833             0.0345              97.784                     9.68206
6     12     0.06          126.833             0.0351              96.8253                     9.63448
6     12     0.06          126.833             0.0357              92.9906                     9.44177
6     12     0.06          126.833             0.0363              111.205                     10.3252
6     12     0.06          126.833             0.0369              96.8253                     9.63448
6     12     0.06          126.833             0.0375              93.9493                     9.49031
6     12     0.06          126.833             0.0381              113.123                     10.4138
6     12     0.06          126.833             0.0387              127.503                     11.0559
6     12     0.06          126.833             0.0393              126.544                     11.0142
6     12     0.06          126.833             0.0399              112.164                     10.3696
6     12     0.06          126.833             0.0405              128.461                     11.0974
6     12     0.06          126.833             0.0411              142.841                     11.702
6     12     0.06          126.833             0.0417              130.379                     11.1799
6     12     0.06          126.833             0.0423              145.717                     11.8192
6     12     0.06          126.833             0.0429              132.296                     11.2618
6     12     0.06          126.833             0.0435              182.147                     13.2143
6     12     0.06          126.833             0.0441              151.469                     12.0502
6     12     0.06          126.833             0.0447              159.139                     12.3516
6     12     0.06          126.833             0.0453              207.072                     14.0895
6     12     0.06          126.833             0.0459              186.94                     13.387
6     12     0.06          126.833             0.0465              193.651                     13.6252
6     12     0.06          126.833             0.0471              221.452                     14.5705
6     12     0.06          126.833             0.0477              226.245                     14.7273
6     12     0.06          126.833             0.0483              282.807                     16.4656
6     12     0.06          126.833             0.0489              274.179                     16.2125
6     12     0.06          126.833             0.0495              318.277                     17.4677
6     12     0.06          126.833             0.0501              351.831                     18.3654
6     12     0.06          126.833             0.0507              380.591                     19.1013
6     12     0.06          126.833             0.0513              451.532                     20.8055
6     12     0.06          126.833             0.0519              520.556                     22.3392
6     12     0.06          126.833             0.0525              587.662                     23.7355
6     12     0.06          126.833             0.0531              811.99                     27.9003
6     12     0.06          126.833             0.0537              1014.27                     31.1825
6     12     0.06          126.833             0.0543              1553.04                     38.5856
6     12     0.06          126.833             0.0549              748.718                     26.7913
6     12     0.06          126.833             0.0555              0                     0
6     12     0.06          126.833             0.0561              0                     0
6     12     0.06          126.833             0.0567              0                     0
6     12     0.06          126.833             0.0573              0                     0
6     12     0.06          126.833             0.0579              0                     0
6     12     0.06          126.833             0.0585              0                     0
6     12     0.06          126.833             0.0591              0                     0
*******************************************************************************************************
 Average angle 126.814 +- 1.12601 deg 
 Average E' 0.0134975 +- 0.000119847 GeV 
