*******************************************************************************************************
Z     A     E(GeV)     Theta(deg)     Energy Loss(GeV)     Sigma(#mub/sr/GeV)     ERROR     Citation     
*******************************************************************************************************
6     12     0.16          168             0.0008              66.6162                     27.196
6     12     0.16          168             0.0024              22.2054                     15.7016
6     12     0.16          168             0.004              33.3081                     19.2305
6     12     0.16          168             0.0056              22.2054                     15.7016
6     12     0.16          168             0.0072              33.3081                     19.2305
6     12     0.16          168             0.0088              66.6162                     27.196
6     12     0.16          168             0.0104              122.13                     36.8235
6     12     0.16          168             0.012              99.9244                     33.3081
6     12     0.16          168             0.0136              77.7189                     29.375
6     12     0.16          168             0.0152              55.5135                     24.8264
6     12     0.16          168             0.0168              66.6162                     27.196
6     12     0.16          168             0.0184              77.7189                     29.375
6     12     0.16          168             0.02              88.8217                     31.4032
6     12     0.16          168             0.0216              133.232                     38.4609
6     12     0.16          168             0.0232              44.4108                     22.2054
6     12     0.16          168             0.0248              99.9244                     33.3081
6     12     0.16          168             0.0264              66.6162                     27.196
6     12     0.16          168             0.028              33.3081                     19.2305
6     12     0.16          168             0.0296              99.9244                     33.3081
6     12     0.16          168             0.0312              410.8                     67.5351
6     12     0.16          168             0.0328              699.471                     88.125
6     12     0.16          168             0.0344              932.627                     101.758
6     12     0.16          168             0.036              1132.48                     112.132
6     12     0.16          168             0.0376              1454.45                     127.076
6     12     0.16          168             0.0392              1942.97                     146.875
6     12     0.16          168             0.0408              2720.16                     173.785
6     12     0.16          168             0.0424              2675.75                     172.36
6     12     0.16          168             0.044              3408.53                     194.535
6     12     0.16          168             0.0456              3730.51                     203.516
6     12     0.16          168             0.0472              4685.34                     228.079
6     12     0.16          168             0.0488              4751.96                     229.695
6     12     0.16          168             0.0504              5151.66                     239.16
6     12     0.16          168             0.052              6284.13                     264.142
6     12     0.16          168             0.0536              6228.62                     262.972
6     12     0.16          168             0.0552              7183.45                     282.411
6     12     0.16          168             0.0568              6883.68                     276.455
6     12     0.16          168             0.0584              7105.73                     280.879
6     12     0.16          168             0.06              7449.92                     287.601
6     12     0.16          168             0.0616              6628.32                     271.279
6     12     0.16          168             0.0632              6850.37                     275.786
6     12     0.16          168             0.0648              7061.32                     280
6     12     0.16          168             0.0664              6683.83                     272.413
6     12     0.16          168             0.068              7050.22                     279.779
6     12     0.16          168             0.0696              6628.32                     271.279
6     12     0.16          168             0.0712              6872.58                     276.232
6     12     0.16          168             0.0728              6750.45                     273.767
6     12     0.16          168             0.0744              6306.34                     264.608
6     12     0.16          168             0.076              6384.06                     266.234
6     12     0.16          168             0.0776              6173.11                     261.798
6     12     0.16          168             0.0792              5840.02                     254.637
6     12     0.16          168             0.0808              6128.69                     260.855
6     12     0.16          168             0.0824              5617.97                     249.749
6     12     0.16          168             0.084              5884.43                     255.604
6     12     0.16          168             0.0856              5384.81                     244.512
6     12     0.16          168             0.0872              5984.36                     257.765
6     12     0.16          168             0.0888              5484.74                     246.77
6     12     0.16          168             0.0904              4807.47                     231.032
6     12     0.16          168             0.092              5273.79                     241.978
6     12     0.16          168             0.0936              4740.86                     229.426
6     12     0.16          168             0.0952              4607.62                     226.179
6     12     0.16          168             0.0968              4552.11                     224.813
6     12     0.16          168             0.0984              4019.18                     211.243
6     12     0.16          168             0.1              4330.06                     219.261
6     12     0.16          168             0.1016              4074.69                     212.697
6     12     0.16          168             0.1032              3863.74                     207.118
6     12     0.16          168             0.1048              3763.82                     204.423
6     12     0.16          168             0.1064              3686.1                     202.301
6     12     0.16          168             0.108              3275.3                     190.695
6     12     0.16          168             0.1096              3286.4                     191.018
6     12     0.16          168             0.1112              2642.44                     171.284
6     12     0.16          168             0.1128              2409.29                     163.553
6     12     0.16          168             0.1144              2220.54                     157.016
6     12     0.16          168             0.116              2242.75                     157.799
6     12     0.16          168             0.1176              2076.21                     151.827
6     12     0.16          168             0.1192              1709.82                     137.781
6     12     0.16          168             0.1208              1243.5                     117.5
6     12     0.16          168             0.1224              932.627                     101.758
6     12     0.16          168             0.124              688.368                     87.4228
6     12     0.16          168             0.1256              299.773                     57.6914
6     12     0.16          168             0.1272              155.438                     41.5425
6     12     0.16          168             0.1288              11.1027                     11.1027
6     12     0.16          168             0.1304              0                     0
6     12     0.16          168             0.132              0                     0
6     12     0.16          168             0.1336              0                     0
6     12     0.16          168             0.1352              0                     0
6     12     0.16          168             0.1368              0                     0
6     12     0.16          168             0.1384              0                     0
6     12     0.16          168             0.14              0                     0
6     12     0.16          168             0.1416              0                     0
6     12     0.16          168             0.1432              0                     0
6     12     0.16          168             0.1448              0                     0
6     12     0.16          168             0.1464              0                     0
6     12     0.16          168             0.148              0                     0
6     12     0.16          168             0.1496              0                     0
6     12     0.16          168             0.1512              0                     0
6     12     0.16          168             0.1528              0                     0
6     12     0.16          168             0.1544              0                     0
6     12     0.16          168             0.156              0                     0
6     12     0.16          168             0.1576              0                     0
*******************************************************************************************************
 Average angle 167.928 +- 1.09486 deg 
 Average E' 0.0848555 +- 0.000553242 GeV 
