*******************************************************************************************************
Z     A     E(GeV)     Theta(deg)     Energy Loss(GeV)     Sigma(#mub/sr/GeV)     ERROR     Citation     
*******************************************************************************************************
6     12     0.2          114.667             0.001              78.9343                     15.1909
6     12     0.2          114.667             0.003              58.4699                     13.0743
6     12     0.2          114.667             0.005              58.4699                     13.0743
6     12     0.2          114.667             0.007              78.9343                     15.1909
6     12     0.2          114.667             0.009              114.016                     18.2572
6     12     0.2          114.667             0.011              99.3987                     17.0467
6     12     0.2          114.667             0.013              99.3987                     17.0467
6     12     0.2          114.667             0.015              125.71                     19.1706
6     12     0.2          114.667             0.017              163.716                     21.8774
6     12     0.2          114.667             0.019              134.481                     19.8281
6     12     0.2          114.667             0.021              128.634                     19.3923
6     12     0.2          114.667             0.023              181.257                     23.0196
6     12     0.2          114.667             0.025              169.563                     22.2647
6     12     0.2          114.667             0.027              187.104                     23.3879
6     12     0.2          114.667             0.029              222.185                     25.4864
6     12     0.2          114.667             0.031              213.415                     24.9783
6     12     0.2          114.667             0.033              479.453                     37.439
6     12     0.2          114.667             0.035              798.113                     48.304
6     12     0.2          114.667             0.037              1488.06                     65.957
6     12     0.2          114.667             0.039              2099.07                     78.3365
6     12     0.2          114.667             0.041              2897.18                     92.032
6     12     0.2          114.667             0.043              3750.84                     104.717
6     12     0.2          114.667             0.045              4645.43                     116.537
6     12     0.2          114.667             0.047              5385.07                     125.472
6     12     0.2          114.667             0.049              6215.35                     134.798
6     12     0.2          114.667             0.051              7308.73                     146.175
6     12     0.2          114.667             0.053              8185.78                     154.697
6     12     0.2          114.667             0.055              8942.96                     161.693
6     12     0.2          114.667             0.057              10015.9                     171.118
6     12     0.2          114.667             0.059              10480.7                     175.044
6     12     0.2          114.667             0.061              10319.9                     173.696
6     12     0.2          114.667             0.063              10647.4                     176.43
6     12     0.2          114.667             0.065              10445.6                     174.751
6     12     0.2          114.667             0.067              9948.65                     170.543
6     12     0.2          114.667             0.069              9969.11                     170.718
6     12     0.2          114.667             0.071              9703.07                     168.425
6     12     0.2          114.667             0.073              9679.68                     168.222
6     12     0.2          114.667             0.075              9527.66                     166.895
6     12     0.2          114.667             0.077              8983.89                     162.063
6     12     0.2          114.667             0.079              9033.59                     162.51
6     12     0.2          114.667             0.081              8776.32                     160.18
6     12     0.2          114.667             0.083              8519.06                     157.814
6     12     0.2          114.667             0.085              8004.52                     152.974
6     12     0.2          114.667             0.087              8141.93                     154.282
6     12     0.2          114.667             0.089              7598.16                     149.041
6     12     0.2          114.667             0.091              7405.21                     147.136
6     12     0.2          114.667             0.093              7060.23                     143.668
6     12     0.2          114.667             0.095              6876.05                     141.782
6     12     0.2          114.667             0.097              6332.28                     136.06
6     12     0.2          114.667             0.099              6162.72                     134.226
6     12     0.2          114.667             0.101              5697.89                     129.065
6     12     0.2          114.667             0.103              5309.06                     124.583
6     12     0.2          114.667             0.105              5235.98                     123.723
6     12     0.2          114.667             0.107              4750.68                     117.85
6     12     0.2          114.667             0.109              4619.12                     116.207
6     12     0.2          114.667             0.111              4230.29                     111.208
6     12     0.2          114.667             0.113              3756.69                     104.798
6     12     0.2          114.667             0.115              3706.99                     104.103
6     12     0.2          114.667             0.117              3312.32                     98.4049
6     12     0.2          114.667             0.119              2958.57                     93.002
6     12     0.2          114.667             0.121              2710.08                     89.0106
6     12     0.2          114.667             0.123              2303.71                     82.0663
6     12     0.2          114.667             0.125              2014.29                     76.7382
6     12     0.2          114.667             0.127              1830.11                     73.1458
6     12     0.2          114.667             0.129              1605                     68.4996
6     12     0.2          114.667             0.131              1350.65                     62.8381
6     12     0.2          114.667             0.133              1040.76                     55.1603
6     12     0.2          114.667             0.135              841.966                     49.6133
6     12     0.2          114.667             0.137              608.086                     42.1632
6     12     0.2          114.667             0.139              388.825                     33.7154
6     12     0.2          114.667             0.141              242.65                     26.6343
6     12     0.2          114.667             0.143              134.481                     19.8281
6     12     0.2          114.667             0.145              116.94                     18.4898
6     12     0.2          114.667             0.147              128.634                     19.3923
6     12     0.2          114.667             0.149              125.71                     19.1706
6     12     0.2          114.667             0.151              134.481                     19.8281
6     12     0.2          114.667             0.153              108.169                     17.7829
6     12     0.2          114.667             0.155              87.7048                     16.0126
6     12     0.2          114.667             0.157              99.3987                     17.0467
6     12     0.2          114.667             0.159              99.3987                     17.0467
6     12     0.2          114.667             0.161              78.9343                     15.1909
6     12     0.2          114.667             0.163              76.0108                     14.9069
6     12     0.2          114.667             0.165              20.4644                     7.73483
6     12     0.2          114.667             0.167              0                     0
6     12     0.2          114.667             0.169              0                     0
6     12     0.2          114.667             0.171              0                     0
6     12     0.2          114.667             0.173              0                     0
6     12     0.2          114.667             0.175              0                     0
6     12     0.2          114.667             0.177              0                     0
6     12     0.2          114.667             0.179              0                     0
6     12     0.2          114.667             0.181              0                     0
6     12     0.2          114.667             0.183              0                     0
6     12     0.2          114.667             0.185              0                     0
6     12     0.2          114.667             0.187              0                     0
6     12     0.2          114.667             0.189              0                     0
6     12     0.2          114.667             0.191              0                     0
6     12     0.2          114.667             0.193              0                     0
6     12     0.2          114.667             0.195              0                     0
6     12     0.2          114.667             0.197              0                     0
*******************************************************************************************************
 Average angle 114.642 +- 0.353138 deg 
 Average E' 0.121709 +- 0.000374906 GeV 
