*******************************************************************************************************
Z     A     E(GeV)     Theta(deg)     Energy Loss(GeV)     Sigma(#mub/sr/GeV)     ERROR     Citation     
*******************************************************************************************************
6     12     0.32          125             0.0016              0                     0
6     12     0.32          125             0.0048              0                     0
6     12     0.32          125             0.008              0                     0
6     12     0.32          125             0.0112              0                     0
6     12     0.32          125             0.0144              2.86822                     2.86822
6     12     0.32          125             0.0176              2.86822                     2.86822
6     12     0.32          125             0.0208              5.73644                     4.05627
6     12     0.32          125             0.024              2.86822                     2.86822
6     12     0.32          125             0.0272              17.2093                     7.02567
6     12     0.32          125             0.0304              28.6822                     9.0701
6     12     0.32          125             0.0336              22.9457                     8.11255
6     12     0.32          125             0.0368              31.5504                     9.5128
6     12     0.32          125             0.04              31.5504                     9.5128
6     12     0.32          125             0.0432              51.6279                     12.1688
6     12     0.32          125             0.0464              63.1008                     13.4531
6     12     0.32          125             0.0496              94.6512                     16.4767
6     12     0.32          125             0.0528              57.3644                     12.8271
6     12     0.32          125             0.056              120.465                     18.5882
6     12     0.32          125             0.0592              140.543                     20.0775
6     12     0.32          125             0.0624              160.62                     21.4638
6     12     0.32          125             0.0656              258.14                     27.2103
6     12     0.32          125             0.0688              335.582                     31.0245
6     12     0.32          125             0.072              450.31                     35.9387
6     12     0.32          125             0.0752              496.202                     37.7255
6     12     0.32          125             0.0784              676.899                     44.0624
6     12     0.32          125             0.0816              748.605                     46.3375
6     12     0.32          125             0.0848              742.868                     46.1596
6     12     0.32          125             0.088              989.535                     53.2748
6     12     0.32          125             0.0912              1101.4                     56.2054
6     12     0.32          125             0.0944              1187.44                     58.3596
6     12     0.32          125             0.0976              1319.38                     61.5164
6     12     0.32          125             0.1008              1551.71                     66.713
6     12     0.32          125             0.104              1623.41                     68.2371
6     12     0.32          125             0.1072              1709.46                     70.0221
6     12     0.32          125             0.1104              1781.16                     71.4756
6     12     0.32          125             0.1136              1953.26                     74.849
6     12     0.32          125             0.1168              2108.14                     77.7599
6     12     0.32          125             0.12              2214.26                     79.6931
6     12     0.32          125             0.1232              2228.61                     79.9508
6     12     0.32          125             0.1264              2317.52                     81.5301
6     12     0.32          125             0.1296              2122.48                     78.024
6     12     0.32          125             0.1328              2191.32                     79.2791
6     12     0.32          125             0.136              2176.98                     79.0193
6     12     0.32          125             0.1392              2122.48                     78.024
6     12     0.32          125             0.1424              2194.19                     79.331
6     12     0.32          125             0.1456              1921.71                     74.242
6     12     0.32          125             0.1488              1827.05                     72.3905
6     12     0.32          125             0.152              1870.08                     73.2379
6     12     0.32          125             0.1552              1700.85                     69.8457
6     12     0.32          125             0.1584              1580.39                     67.3268
6     12     0.32          125             0.1616              1574.65                     67.2045
6     12     0.32          125             0.1648              1468.53                     64.9004
6     12     0.32          125             0.168              1333.72                     61.8498
6     12     0.32          125             0.1712              1181.71                     58.2185
6     12     0.32          125             0.1744              1049.77                     54.8722
6     12     0.32          125             0.1776              1055.5                     55.022
6     12     0.32          125             0.1808              1124.34                     56.7878
6     12     0.32          125             0.184              906.357                     50.9866
6     12     0.32          125             0.1872              834.651                     48.9281
6     12     0.32          125             0.1904              783.024                     47.3907
6     12     0.32          125             0.1936              642.481                     42.9276
6     12     0.32          125             0.1968              622.403                     42.2515
6     12     0.32          125             0.2              553.566                     39.8466
6     12     0.32          125             0.2032              481.861                     37.1764
6     12     0.32          125             0.2064              404.419                     34.0582
6     12     0.32          125             0.2096              370                     32.5767
6     12     0.32          125             0.2128              312.636                     29.9451
6     12     0.32          125             0.216              240.93                     26.2877
6     12     0.32          125             0.2192              212.248                     24.6733
6     12     0.32          125             0.2224              180.698                     22.7658
6     12     0.32          125             0.2256              215.116                     24.8395
6     12     0.32          125             0.2288              223.721                     25.3314
6     12     0.32          125             0.232              197.907                     23.8252
6     12     0.32          125             0.2352              255.271                     27.0587
6     12     0.32          125             0.2384              252.403                     26.9063
6     12     0.32          125             0.2416              200.775                     23.9972
6     12     0.32          125             0.2448              235.194                     25.9728
6     12     0.32          125             0.248              283.954                     28.5384
6     12     0.32          125             0.2512              240.93                     26.2877
6     12     0.32          125             0.2544              283.954                     28.5384
6     12     0.32          125             0.2576              312.636                     29.9451
6     12     0.32          125             0.2608              338.45                     31.1568
6     12     0.32          125             0.264              367.132                     32.4502
6     12     0.32          125             0.2672              381.473                     33.0779
6     12     0.32          125             0.2704              458.915                     36.2804
6     12     0.32          125             0.2736              539.225                     39.327
6     12     0.32          125             0.2768              582.248                     40.8658
6     12     0.32          125             0.28              685.504                     44.3416
6     12     0.32          125             0.2832              777.287                     47.2168
6     12     0.32          125             0.2864              946.512                     52.1038
6     12     0.32          125             0.2896              1075.58                     55.5428
6     12     0.32          125             0.2928              1267.75                     60.3008
6     12     0.32          125             0.296              1468.53                     64.9004
6     12     0.32          125             0.2992              1514.42                     65.9066
6     12     0.32          125             0.3024              0                     0
6     12     0.32          125             0.3056              0                     0
6     12     0.32          125             0.3088              0                     0
6     12     0.32          125             0.312              0                     0
6     12     0.32          125             0.3152              0                     0
*******************************************************************************************************
 Average angle 124.985 +- 0.774084 deg 
 Average E' 0.159448 +- 0.000987527 GeV 
