*******************************************************************************************************
Z     A     E(GeV)     Theta(deg)     Energy Loss(GeV)     Sigma(#mub/sr/GeV)     ERROR     Citation     
*******************************************************************************************************
6     12     0.62          53.5             0.0031              0                     0
6     12     0.62          53.5             0.0093              0                     0
6     12     0.62          53.5             0.0155              0                     0
6     12     0.62          53.5             0.0217              0                     0
6     12     0.62          53.5             0.0279              0                     0
6     12     0.62          53.5             0.0341              0                     0
6     12     0.62          53.5             0.0403              0                     0
6     12     0.62          53.5             0.0465              0                     0
6     12     0.62          53.5             0.0527              0                     0
6     12     0.62          53.5             0.0589              33.775                     8.19164
6     12     0.62          53.5             0.0651              150.994                     17.3202
6     12     0.62          53.5             0.0713              454.969                     30.0652
6     12     0.62          53.5             0.0775              705.301                     37.4335
6     12     0.62          53.5             0.0837              1031.13                     45.2616
6     12     0.62          53.5             0.0899              1621.2                     56.7533
6     12     0.62          53.5             0.0961              1901.33                     61.4614
6     12     0.62          53.5             0.1023              2533.12                     70.9417
6     12     0.62          53.5             0.1085              3079.48                     78.219
6     12     0.62          53.5             0.1147              3653.66                     85.1995
6     12     0.62          53.5             0.1209              4124.52                     90.5232
6     12     0.62          53.5             0.1271              4561.61                     95.199
6     12     0.62          53.5             0.1333              4802.01                     97.6753
6     12     0.62          53.5             0.1395              5209.29                     101.733
6     12     0.62          53.5             0.1457              5417.9                     103.75
6     12     0.62          53.5             0.1519              5231.15                     101.946
6     12     0.62          53.5             0.1581              5306.65                     102.679
6     12     0.62          53.5             0.1643              4917.24                     98.8403
6     12     0.62          53.5             0.1705              4768.23                     97.3312
6     12     0.62          53.5             0.1767              4476.18                     94.3033
6     12     0.62          53.5             0.1829              4156.31                     90.8714
6     12     0.62          53.5             0.1891              3717.24                     85.9376
6     12     0.62          53.5             0.1953              3544.39                     83.9158
6     12     0.62          53.5             0.2015              3151.01                     79.1221
6     12     0.62          53.5             0.2077              2791.4                     74.4705
6     12     0.62          53.5             0.2139              2360.28                     68.4785
6     12     0.62          53.5             0.2201              2304.65                     67.6667
6     12     0.62          53.5             0.2263              2103.98                     64.6538
6     12     0.62          53.5             0.2325              1750.34                     58.9704
6     12     0.62          53.5             0.2387              1581.46                     56.0535
6     12     0.62          53.5             0.2449              1597.36                     56.3345
6     12     0.62          53.5             0.2511              1370.87                     52.188
6     12     0.62          53.5             0.2573              1094.71                     46.6361
6     12     0.62          53.5             0.2635              1082.79                     46.3815
6     12     0.62          53.5             0.2697              1017.22                     44.9553
6     12     0.62          53.5             0.2759              951.66                     43.4824
6     12     0.62          53.5             0.2821              792.719                     39.6856
6     12     0.62          53.5             0.2883              810.6                     40.1307
6     12     0.62          53.5             0.2945              919.872                     42.7501
6     12     0.62          53.5             0.3007              901.991                     42.3325
6     12     0.62          53.5             0.3069              963.58                     43.7539
6     12     0.62          53.5             0.3131              1066.89                     46.0398
6     12     0.62          53.5             0.3193              1156.3                     47.93
6     12     0.62          53.5             0.3255              1237.75                     49.5896
6     12     0.62          53.5             0.3317              1321.2                     51.2339
6     12     0.62          53.5             0.3379              1490.07                     54.4098
6     12     0.62          53.5             0.3441              1559.61                     55.6649
6     12     0.62          53.5             0.3503              1690.74                     57.9577
6     12     0.62          53.5             0.3565              1831.8                     60.327
6     12     0.62          53.5             0.3627              1968.88                     62.5436
6     12     0.62          53.5             0.3689              2145.7                     65.2917
6     12     0.62          53.5             0.3751              2211.27                     66.2817
6     12     0.62          53.5             0.3813              2310.61                     67.7542
6     12     0.62          53.5             0.3875              2459.61                     69.9047
6     12     0.62          53.5             0.3937              2682.13                     72.9984
6     12     0.62          53.5             0.3999              2543.06                     71.0806
6     12     0.62          53.5             0.4061              2739.75                     73.7783
6     12     0.62          53.5             0.4123              2602.66                     71.9088
6     12     0.62          53.5             0.4185              2743.72                     73.8317
6     12     0.62          53.5             0.4247              2805.31                     74.6558
6     12     0.62          53.5             0.4309              2819.22                     74.8406
6     12     0.62          53.5             0.4371              2757.63                     74.0186
6     12     0.62          53.5             0.4433              2642.4                     72.4556
6     12     0.62          53.5             0.4495              2552.99                     71.2193
6     12     0.62          53.5             0.4557              2680.14                     72.9713
6     12     0.62          53.5             0.4619              2455.64                     69.8482
6     12     0.62          53.5             0.4681              2453.65                     69.82
6     12     0.62          53.5             0.4743              2322.53                     67.9287
6     12     0.62          53.5             0.4805              2252.99                     66.9041
6     12     0.62          53.5             0.4867              2046.37                     63.7624
6     12     0.62          53.5             0.4929              2018.55                     63.3276
6     12     0.62          53.5             0.4991              1879.48                     61.1071
6     12     0.62          53.5             0.5053              1911.27                     61.6217
6     12     0.62          53.5             0.5115              1843.72                     60.523
6     12     0.62          53.5             0.5177              1585.44                     56.1239
6     12     0.62          53.5             0.5239              1641.07                     57.1
6     12     0.62          53.5             0.5301              1398.68                     52.7148
6     12     0.62          53.5             0.5363              1539.74                     55.3092
6     12     0.62          53.5             0.5425              1396.69                     52.6773
6     12     0.62          53.5             0.5487              1358.95                     51.9606
6     12     0.62          53.5             0.5549              1309.28                     51.0022
6     12     0.62          53.5             0.5611              1196.03                     48.7466
6     12     0.62          53.5             0.5673              1198.02                     48.7871
6     12     0.62          53.5             0.5735              1140.4                     47.5995
6     12     0.62          53.5             0.5797              633.778                     35.4847
6     12     0.62          53.5             0.5859              0                     0
6     12     0.62          53.5             0.5921              0                     0
6     12     0.62          53.5             0.5983              0                     0
6     12     0.62          53.5             0.6045              0                     0
6     12     0.62          53.5             0.6107              0                     0
*******************************************************************************************************
 Average angle 53.4579 +- 0.173531 deg 
 Average E' 0.326732 +- 0.00106061 GeV 
