*******************************************************************************************************
Z     A     E(GeV)     Theta(deg)     Energy Loss(GeV)     Sigma(#mub/sr/GeV)     ERROR     Citation     
*******************************************************************************************************
6     12     0.56          93.6             0.0028              0                     0
6     12     0.56          93.6             0.0084              0                     0
6     12     0.56          93.6             0.014              0                     0
6     12     0.56          93.6             0.0196              0                     0
6     12     0.56          93.6             0.0252              0                     0
6     12     0.56          93.6             0.0308              0                     0
6     12     0.56          93.6             0.0364              0                     0
6     12     0.56          93.6             0.042              0                     0
6     12     0.56          93.6             0.0476              0                     0
6     12     0.56          93.6             0.0532              0                     0
6     12     0.56          93.6             0.0588              0                     0
6     12     0.56          93.6             0.0644              0                     0
6     12     0.56          93.6             0.07              0                     0
6     12     0.56          93.6             0.0756              0                     0
6     12     0.56          93.6             0.0812              0                     0
6     12     0.56          93.6             0.0868              0                     0
6     12     0.56          93.6             0.0924              0                     0
6     12     0.56          93.6             0.098              0                     0
6     12     0.56          93.6             0.1036              0                     0
6     12     0.56          93.6             0.1092              0                     0
6     12     0.56          93.6             0.1148              0                     0
6     12     0.56          93.6             0.1204              0                     0
6     12     0.56          93.6             0.126              0                     0
6     12     0.56          93.6             0.1316              3.43429                     2.42841
6     12     0.56          93.6             0.1372              15.4543                     5.15143
6     12     0.56          93.6             0.1428              39.4943                     8.23513
6     12     0.56          93.6             0.1484              42.9286                     8.58572
6     12     0.56          93.6             0.154              80.7057                     11.7721
6     12     0.56          93.6             0.1596              97.8772                     12.9641
6     12     0.56          93.6             0.1652              137.371                     15.3586
6     12     0.56          93.6             0.1708              207.774                     18.8886
6     12     0.56          93.6             0.1764              271.309                     21.5842
6     12     0.56          93.6             0.182              274.743                     21.7203
6     12     0.56          93.6             0.1876              321.106                     23.4816
6     12     0.56          93.6             0.1932              357.166                     24.765
6     12     0.56          93.6             0.1988              467.063                     28.3199
6     12     0.56          93.6             0.2044              525.446                     30.0377
6     12     0.56          93.6             0.21              547.769                     30.6692
6     12     0.56          93.6             0.2156              666.252                     33.8238
6     12     0.56          93.6             0.2212              693.726                     34.5142
6     12     0.56          93.6             0.2268              750.392                     35.8961
6     12     0.56          93.6             0.2324              743.523                     35.7314
6     12     0.56          93.6             0.238              827.663                     37.699
6     12     0.56          93.6             0.2436              760.695                     36.1417
6     12     0.56          93.6             0.2492              710.897                     34.9387
6     12     0.56          93.6             0.2548              722.917                     35.2328
6     12     0.56          93.6             0.2604              717.766                     35.1071
6     12     0.56          93.6             0.266              712.615                     34.9809
6     12     0.56          93.6             0.2716              625.04                     32.761
6     12     0.56          93.6             0.2772              619.889                     32.6257
6     12     0.56          93.6             0.2828              554.637                     30.8608
6     12     0.56          93.6             0.2884              583.829                     31.6626
6     12     0.56          93.6             0.294              547.769                     30.6692
6     12     0.56          93.6             0.2996              568.375                     31.2407
6     12     0.56          93.6             0.3052              485.952                     28.8868
6     12     0.56          93.6             0.3108              582.112                     31.616
6     12     0.56          93.6             0.3164              522.012                     29.9394
6     12     0.56          93.6             0.322              528.88                     30.1357
6     12     0.56          93.6             0.3276              499.689                     29.2923
6     12     0.56          93.6             0.3332              542.617                     30.5246
6     12     0.56          93.6             0.3388              475.649                     28.579
6     12     0.56          93.6             0.3444              528.88                     30.1357
6     12     0.56          93.6             0.35              559.789                     31.0038
6     12     0.56          93.6             0.3556              552.92                     30.813
6     12     0.56          93.6             0.3612              563.223                     31.0988
6     12     0.56          93.6             0.3668              540.9                     30.4763
6     12     0.56          93.6             0.3724              604.435                     32.2165
6     12     0.56          93.6             0.378              606.152                     32.2622
6     12     0.56          93.6             0.3836              733.22                     35.483
6     12     0.56          93.6             0.3892              709.18                     34.8965
6     12     0.56          93.6             0.3948              745.24                     35.7727
6     12     0.56          93.6             0.4004              815.643                     37.4243
6     12     0.56          93.6             0.406              855.138                     38.3196
6     12     0.56          93.6             0.4116              946.146                     40.3072
6     12     0.56          93.6             0.4172              1021.7                     41.8856
6     12     0.56          93.6             0.4228              940.995                     40.1973
6     12     0.56          93.6             0.4284              1042.31                     42.3059
6     12     0.56          93.6             0.434              1007.96                     41.6031
6     12     0.56          93.6             0.4396              1028.57                     42.0262
6     12     0.56          93.6             0.4452              1064.63                     42.7565
6     12     0.56          93.6             0.4508              1059.48                     42.653
6     12     0.56          93.6             0.4564              1049.17                     42.4451
6     12     0.56          93.6             0.462              1181.39                     45.0403
6     12     0.56          93.6             0.4676              1093.82                     43.3387
6     12     0.56          93.6             0.4732              1019.98                     41.8504
6     12     0.56          93.6             0.4788              985.64                     41.1398
6     12     0.56          93.6             0.4844              970.186                     40.816
6     12     0.56          93.6             0.49              1026.85                     41.9911
6     12     0.56          93.6             0.4956              913.52                     39.6061
6     12     0.56          93.6             0.5012              906.652                     39.457
6     12     0.56          93.6             0.5068              863.723                     38.5115
6     12     0.56          93.6             0.5124              904.935                     39.4196
6     12     0.56          93.6             0.518              832.815                     37.8162
6     12     0.56          93.6             0.5236              757.26                     36.06
6     12     0.56          93.6             0.5292              762.412                     36.1825
6     12     0.56          93.6             0.5348              695.443                     34.5568
6     12     0.56          93.6             0.5404              688.575                     34.3858
6     12     0.56          93.6             0.546              12.02                     4.54313
6     12     0.56          93.6             0.5516              0                     0
*******************************************************************************************************
 Average angle 93.5802 +- 0.557262 deg 
 Average E' 0.182421 +- 0.0010863 GeV 
