*******************************************************************************************************
Z     A     E(GeV)     Theta(deg)     Energy Loss(GeV)     Sigma(#mub/sr/GeV)     ERROR     Citation     
*******************************************************************************************************
6     12     0.48          41.3333             0.0024              0                     0
6     12     0.48          41.3333             0.0072              0                     0
6     12     0.48          41.3333             0.012              0                     0
6     12     0.48          41.3333             0.0168              0                     0
6     12     0.48          41.3333             0.0216              0                     0
6     12     0.48          41.3333             0.0264              0                     0
6     12     0.48          41.3333             0.0312              123.261                     18.7971
6     12     0.48          41.3333             0.036              3161.79                     95.2018
6     12     0.48          41.3333             0.0408              10090.2                     170.07
6     12     0.48          41.3333             0.0456              19638.6                     237.265
6     12     0.48          41.3333             0.0504              30115.8                     293.816
6     12     0.48          41.3333             0.0552              40722                     341.659
6     12     0.48          41.3333             0.06              47601.7                     369.394
6     12     0.48          41.3333             0.0648              50442.4                     380.256
6     12     0.48          41.3333             0.0696              52185.3                     386.77
6     12     0.48          41.3333             0.0744              51838.4                     385.482
6     12     0.48          41.3333             0.0792              49588.2                     377.023
6     12     0.48          41.3333             0.084              46374.8                     364.602
6     12     0.48          41.3333             0.0888              42863.3                     350.527
6     12     0.48          41.3333             0.0936              40074.2                     338.931
6     12     0.48          41.3333             0.0984              36771.9                     324.666
6     12     0.48          41.3333             0.1032              33002.4                     307.575
6     12     0.48          41.3333             0.108              30141.6                     293.942
6     12     0.48          41.3333             0.1128              26810.7                     277.225
6     12     0.48          41.3333             0.1176              23339.3                     258.656
6     12     0.48          41.3333             0.1224              21447.4                     247.951
6     12     0.48          41.3333             0.1272              18626.7                     231.072
6     12     0.48          41.3333             0.132              15496.5                     210.763
6     12     0.48          41.3333             0.1368              13346.6                     195.598
6     12     0.48          41.3333             0.1416              11388.7                     180.683
6     12     0.48          41.3333             0.1464              9557.03                     165.516
6     12     0.48          41.3333             0.1512              7524.65                     146.866
6     12     0.48          41.3333             0.156              6314.98                     134.544
6     12     0.48          41.3333             0.1608              5059.43                     120.429
6     12     0.48          41.3333             0.1656              3643.37                     102.195
6     12     0.48          41.3333             0.1704              2832.14                     90.1023
6     12     0.48          41.3333             0.1752              1940.64                     74.585
6     12     0.48          41.3333             0.18              1324.34                     61.6138
6     12     0.48          41.3333             0.1848              905.825                     50.9566
6     12     0.48          41.3333             0.1896              756.765                     46.5757
6     12     0.48          41.3333             0.1944              699.434                     44.7767
6     12     0.48          41.3333             0.1992              773.964                     47.102
6     12     0.48          41.3333             0.204              874.293                     50.0619
6     12     0.48          41.3333             0.2088              1069.22                     55.362
6     12     0.48          41.3333             0.2136              1014.75                     53.9335
6     12     0.48          41.3333             0.2184              1092.15                     55.9525
6     12     0.48          41.3333             0.2232              1183.88                     58.2549
6     12     0.48          41.3333             0.228              1126.55                     56.8268
6     12     0.48          41.3333             0.2328              1166.68                     57.8302
6     12     0.48          41.3333             0.2376              1275.61                     60.4696
6     12     0.48          41.3333             0.2424              1289.94                     60.8084
6     12     0.48          41.3333             0.2472              1459.07                     64.672
6     12     0.48          41.3333             0.252              1636.79                     68.4976
6     12     0.48          41.3333             0.2568              1582.33                     67.3483
6     12     0.48          41.3333             0.2616              1800.18                     71.8351
6     12     0.48          41.3333             0.2664              1691.26                     69.6279
6     12     0.48          41.3333             0.2712              1992.24                     75.57
6     12     0.48          41.3333             0.276              2124.1                     78.0308
6     12     0.48          41.3333             0.2808              2192.9                     79.2844
6     12     0.48          41.3333             0.2856              2479.55                     84.3073
6     12     0.48          41.3333             0.2904              2703.14                     88.0264
6     12     0.48          41.3333             0.2952              2926.73                     91.5946
6     12     0.48          41.3333             0.3              3004.13                     92.7978
6     12     0.48          41.3333             0.3048              3365.31                     98.218
6     12     0.48          41.3333             0.3096              3789.56                     104.225
6     12     0.48          41.3333             0.3144              3935.75                     106.217
6     12     0.48          41.3333             0.3192              4136.41                     108.891
6     12     0.48          41.3333             0.324              4830.11                     117.668
6     12     0.48          41.3333             0.3288              4956.24                     119.194
6     12     0.48          41.3333             0.3336              5426.35                     124.719
6     12     0.48          41.3333             0.3384              5635.61                     127.101
6     12     0.48          41.3333             0.3432              6134.38                     132.606
6     12     0.48          41.3333             0.348              6054.12                     131.736
6     12     0.48          41.3333             0.3528              6378.04                     135.214
6     12     0.48          41.3333             0.3576              6707.69                     138.664
6     12     0.48          41.3333             0.3624              6939.88                     141.044
6     12     0.48          41.3333             0.3672              6810.89                     139.727
6     12     0.48          41.3333             0.372              7229.4                     143.956
6     12     0.48          41.3333             0.3768              7215.07                     143.813
6     12     0.48          41.3333             0.3816              7607.78                     147.675
6     12     0.48          41.3333             0.3864              7260.93                     144.27
6     12     0.48          41.3333             0.3912              6567.23                     137.205
6     12     0.48          41.3333             0.396              3803.89                     104.422
6     12     0.48          41.3333             0.4008              814.096                     48.3077
6     12     0.48          41.3333             0.4056              0                     0
6     12     0.48          41.3333             0.4104              0                     0
6     12     0.48          41.3333             0.4152              0                     0
6     12     0.48          41.3333             0.42              0                     0
6     12     0.48          41.3333             0.4248              0                     0
6     12     0.48          41.3333             0.4296              0                     0
6     12     0.48          41.3333             0.4344              0                     0
6     12     0.48          41.3333             0.4392              0                     0
6     12     0.48          41.3333             0.444              0                     0
6     12     0.48          41.3333             0.4488              0                     0
6     12     0.48          41.3333             0.4536              0                     0
6     12     0.48          41.3333             0.4584              0                     0
6     12     0.48          41.3333             0.4632              0                     0
6     12     0.48          41.3333             0.468              0                     0
6     12     0.48          41.3333             0.4728              0                     0
*******************************************************************************************************
 Average angle 41.2822 +- 0.0733575 deg 
 Average E' 0.350301 +- 0.000622477 GeV 
