*******************************************************************************************************
Z     A     E(GeV)     Theta(deg)     Energy Loss(GeV)     Sigma(#mub/sr/GeV)     ERROR     Citation     
*******************************************************************************************************
6     12     0.56          131.4             0.0028              0                     0
6     12     0.56          131.4             0.0084              0                     0
6     12     0.56          131.4             0.014              0                     0
6     12     0.56          131.4             0.0196              0                     0
6     12     0.56          131.4             0.0252              0                     0
6     12     0.56          131.4             0.0308              0                     0
6     12     0.56          131.4             0.0364              0                     0
6     12     0.56          131.4             0.042              0                     0
6     12     0.56          131.4             0.0476              0                     0
6     12     0.56          131.4             0.0532              0                     0
6     12     0.56          131.4             0.0588              0                     0
6     12     0.56          131.4             0.0644              0                     0
6     12     0.56          131.4             0.07              0                     0
6     12     0.56          131.4             0.0756              0                     0
6     12     0.56          131.4             0.0812              0                     0
6     12     0.56          131.4             0.0868              0                     0
6     12     0.56          131.4             0.0924              0                     0
6     12     0.56          131.4             0.098              0                     0
6     12     0.56          131.4             0.1036              0                     0
6     12     0.56          131.4             0.1092              0                     0
6     12     0.56          131.4             0.1148              0                     0
6     12     0.56          131.4             0.1204              0                     0
6     12     0.56          131.4             0.126              0                     0
6     12     0.56          131.4             0.1316              0                     0
6     12     0.56          131.4             0.1372              0                     0
6     12     0.56          131.4             0.1428              0                     0
6     12     0.56          131.4             0.1484              0                     0
6     12     0.56          131.4             0.154              0                     0
6     12     0.56          131.4             0.1596              0                     0
6     12     0.56          131.4             0.1652              0                     0
6     12     0.56          131.4             0.1708              0                     0
6     12     0.56          131.4             0.1764              0                     0
6     12     0.56          131.4             0.182              0                     0
6     12     0.56          131.4             0.1876              0                     0
6     12     0.56          131.4             0.1932              6.85401                     3.95716
6     12     0.56          131.4             0.1988              4.56934                     3.23101
6     12     0.56          131.4             0.2044              13.708                     5.59627
6     12     0.56          131.4             0.21              18.2773                     6.46202
6     12     0.56          131.4             0.2156              15.9927                     6.04466
6     12     0.56          131.4             0.2212              43.4087                     9.95864
6     12     0.56          131.4             0.2268              36.5547                     9.13867
6     12     0.56          131.4             0.2324              68.5401                     12.5136
6     12     0.56          131.4             0.238              82.2481                     13.708
6     12     0.56          131.4             0.2436              105.095                     15.4954
6     12     0.56          131.4             0.2492              86.8174                     14.0836
6     12     0.56          131.4             0.2548              125.657                     16.9436
6     12     0.56          131.4             0.2604              114.233                     16.155
6     12     0.56          131.4             0.266              171.35                     19.7858
6     12     0.56          131.4             0.2716              187.343                     20.6886
6     12     0.56          131.4             0.2772              169.065                     19.6535
6     12     0.56          131.4             0.2828              223.898                     22.6171
6     12     0.56          131.4             0.2884              246.744                     23.743
6     12     0.56          131.4             0.294              285.584                     25.5434
6     12     0.56          131.4             0.2996              255.883                     24.1787
6     12     0.56          131.4             0.3052              276.445                     25.1314
6     12     0.56          131.4             0.3108              285.584                     25.5434
6     12     0.56          131.4             0.3164              246.744                     23.743
6     12     0.56          131.4             0.322              212.474                     22.0325
6     12     0.56          131.4             0.3276              242.175                     23.5221
6     12     0.56          131.4             0.3332              175.919                     20.0479
6     12     0.56          131.4             0.3388              260.452                     24.3936
6     12     0.56          131.4             0.3444              210.19                     21.9138
6     12     0.56          131.4             0.35              198.766                     21.31
6     12     0.56          131.4             0.3556              173.635                     19.9173
6     12     0.56          131.4             0.3612              260.452                     24.3936
6     12     0.56          131.4             0.3668              228.467                     22.8467
6     12     0.56          131.4             0.3724              262.737                     24.5003
6     12     0.56          131.4             0.378              233.036                     23.074
6     12     0.56          131.4             0.3836              278.73                     25.235
6     12     0.56          131.4             0.3892              299.292                     26.1492
6     12     0.56          131.4             0.3948              292.438                     25.8481
6     12     0.56          131.4             0.4004              287.868                     25.6453
6     12     0.56          131.4             0.406              335.846                     27.7001
6     12     0.56          131.4             0.4116              395.248                     30.0501
6     12     0.56          131.4             0.4172              427.233                     31.2424
6     12     0.56          131.4             0.4228              404.386                     30.3955
6     12     0.56          131.4             0.4284              365.547                     28.899
6     12     0.56          131.4             0.434              475.211                     32.95
6     12     0.56          131.4             0.4396              541.466                     35.172
6     12     0.56          131.4             0.4452              482.065                     33.1867
6     12     0.56          131.4             0.4508              582.59                     36.4832
6     12     0.56          131.4             0.4564              600.868                     37.0511
6     12     0.56          131.4             0.462              651.131                     38.5696
6     12     0.56          131.4             0.4676              559.744                     35.7607
6     12     0.56          131.4             0.4732              625.999                     37.818
6     12     0.56          131.4             0.4788              621.43                     37.6797
6     12     0.56          131.4             0.4844              594.014                     36.8392
6     12     0.56          131.4             0.49              578.021                     36.3399
6     12     0.56          131.4             0.4956              502.627                     33.8871
6     12     0.56          131.4             0.5012              564.313                     35.9064
6     12     0.56          131.4             0.5068              539.182                     35.0977
6     12     0.56          131.4             0.5124              548.32                     35.3939
6     12     0.56          131.4             0.518              541.466                     35.172
6     12     0.56          131.4             0.5236              479.78                     33.108
6     12     0.56          131.4             0.5292              518.62                     34.422
6     12     0.56          131.4             0.5348              443.226                     31.8218
6     12     0.56          131.4             0.5404              418.094                     30.9064
6     12     0.56          131.4             0.546              388.394                     29.7884
6     12     0.56          131.4             0.5516              45.6934                     10.2173
*******************************************************************************************************
 Average angle 131.386 +- 1.40716 deg 
 Average E' 0.133197 +- 0.00142655 GeV 
