*******************************************************************************************************
Z     A     E(GeV)     Theta(deg)     Energy Loss(GeV)     Sigma(#mub/sr/GeV)     ERROR     Citation     
*******************************************************************************************************
6     12     0.24          124             0.0012              37.5611                     10.843
6     12     0.24          124             0.0036              62.6019                     13.9982
6     12     0.24          124             0.006              37.5611                     10.843
6     12     0.24          124             0.0084              53.2116                     12.9057
6     12     0.24          124             0.0108              81.3825                     15.9604
6     12     0.24          124             0.0132              62.6019                     13.9982
6     12     0.24          124             0.0156              93.9028                     17.1442
6     12     0.24          124             0.018              103.293                     17.981
6     12     0.24          124             0.0204              87.6426                     16.5629
6     12     0.24          124             0.0228              150.245                     21.6859
6     12     0.24          124             0.0252              118.944                     19.2952
6     12     0.24          124             0.0276              134.594                     20.5254
6     12     0.24          124             0.03              140.854                     20.9973
6     12     0.24          124             0.0324              187.806                     24.2456
6     12     0.24          124             0.0348              200.326                     25.0408
6     12     0.24          124             0.0372              165.895                     22.7874
6     12     0.24          124             0.0396              197.196                     24.8444
6     12     0.24          124             0.042              300.489                     30.6685
6     12     0.24          124             0.0444              604.108                     43.4847
6     12     0.24          124             0.0468              857.646                     51.8123
6     12     0.24          124             0.0492              1076.75                     58.0546
6     12     0.24          124             0.0516              1361.59                     65.2833
6     12     0.24          124             0.054              1997                     79.062
6     12     0.24          124             0.0564              2231.76                     83.58
6     12     0.24          124             0.0588              2688.75                     91.739
6     12     0.24          124             0.0612              2948.55                     96.0689
6     12     0.24          124             0.0636              3048.71                     97.687
6     12     0.24          124             0.066              3474.41                     104.284
6     12     0.24          124             0.0684              3968.96                     111.459
6     12     0.24          124             0.0708              4047.21                     112.553
6     12     0.24          124             0.0732              4485.43                     118.49
6     12     0.24          124             0.0756              4532.38                     119.108
6     12     0.24          124             0.078              4651.32                     120.661
6     12     0.24          124             0.0804              5098.92                     126.333
6     12     0.24          124             0.0828              4795.3                     122.514
6     12     0.24          124             0.0852              4892.34                     123.748
6     12     0.24          124             0.0876              4735.83                     121.752
6     12     0.24          124             0.09              5011.28                     125.243
6     12     0.24          124             0.0924              4670.1                     120.904
6     12     0.24          124             0.0948              4457.25                     118.117
6     12     0.24          124             0.0972              4360.22                     116.824
6     12     0.24          124             0.0996              4325.79                     116.362
6     12     0.24          124             0.102              4125.46                     113.636
6     12     0.24          124             0.1044              4065.99                     112.814
6     12     0.24          124             0.1068              3881.32                     110.222
6     12     0.24          124             0.1092              3502.58                     104.706
6     12     0.24          124             0.1116              3765.5                     108.565
6     12     0.24          124             0.114              3493.19                     104.566
6     12     0.24          124             0.1164              3177.05                     99.7219
6     12     0.24          124             0.1188              3089.4                     98.3368
6     12     0.24          124             0.1212              2892.21                     95.1466
6     12     0.24          124             0.1236              2901.6                     95.301
6     12     0.24          124             0.126              2707.53                     92.0588
6     12     0.24          124             0.1284              2410.17                     86.8566
6     12     0.24          124             0.1308              2263.06                     84.164
6     12     0.24          124             0.1332              2053.34                     80.1695
6     12     0.24          124             0.1356              1846.76                     76.0297
6     12     0.24          124             0.138              1543.14                     69.4994
6     12     0.24          124             0.1404              1568.18                     70.061
6     12     0.24          124             0.1428              1461.75                     67.6419
6     12     0.24          124             0.1452              1358.46                     65.2082
6     12     0.24          124             0.1476              1170.66                     60.5331
6     12     0.24          124             0.15              998.5                     55.9053
6     12     0.24          124             0.1524              813.825                     50.4713
6     12     0.24          124             0.1548              801.304                     50.0815
6     12     0.24          124             0.1572              641.669                     44.8161
6     12     0.24          124             0.1596              494.555                     39.3447
6     12     0.24          124             0.162              391.262                     34.9955
6     12     0.24          124             0.1644              344.31                     32.8287
6     12     0.24          124             0.1668              266.058                     28.858
6     12     0.24          124             0.1692              165.895                     22.7874
6     12     0.24          124             0.1716              147.114                     21.4588
6     12     0.24          124             0.174              150.245                     21.6859
6     12     0.24          124             0.1764              137.724                     20.7627
6     12     0.24          124             0.1788              140.854                     20.9973
6     12     0.24          124             0.1812              140.854                     20.9973
6     12     0.24          124             0.1836              131.464                     20.2853
6     12     0.24          124             0.186              131.464                     20.2853
6     12     0.24          124             0.1884              103.293                     17.981
6     12     0.24          124             0.1908              106.423                     18.2514
6     12     0.24          124             0.1932              103.293                     17.981
6     12     0.24          124             0.1956              153.375                     21.9107
6     12     0.24          124             0.198              131.464                     20.2853
6     12     0.24          124             0.2004              112.683                     18.7806
6     12     0.24          124             0.2028              122.074                     19.5474
6     12     0.24          124             0.2052              131.464                     20.2853
6     12     0.24          124             0.2076              128.334                     20.0424
6     12     0.24          124             0.21              100.163                     17.7065
6     12     0.24          124             0.2124              71.9922                     15.0114
6     12     0.24          124             0.2148              0                     0
6     12     0.24          124             0.2172              0                     0
6     12     0.24          124             0.2196              0                     0
6     12     0.24          124             0.222              0                     0
6     12     0.24          124             0.2244              0                     0
6     12     0.24          124             0.2268              0                     0
6     12     0.24          124             0.2292              0                     0
6     12     0.24          124             0.2316              0                     0
6     12     0.24          124             0.234              0                     0
6     12     0.24          124             0.2364              0                     0
*******************************************************************************************************
 Average angle 123.978 +- 0.571521 deg 
 Average E' 0.14345 +- 0.000661284 GeV 
