*******************************************************************************************************
Z     A     E(GeV)     Theta(deg)     Energy Loss(GeV)     Sigma(#mub/sr/GeV)     ERROR     Citation     
*******************************************************************************************************
6     12     0.32          100             0.0016              14.3145                     5.84387
6     12     0.32          100             0.0048              7.15725                     4.13224
6     12     0.32          100             0.008              11.9288                     5.3347
6     12     0.32          100             0.0112              19.086                     6.74792
6     12     0.32          100             0.0144              26.2433                     7.91264
6     12     0.32          100             0.0176              38.172                     9.54301
6     12     0.32          100             0.0208              28.629                     8.26449
6     12     0.32          100             0.024              47.715                     10.6694
6     12     0.32          100             0.0272              71.5725                     13.0673
6     12     0.32          100             0.0304              57.258                     11.6877
6     12     0.32          100             0.0336              47.715                     10.6694
6     12     0.32          100             0.0368              93.0443                     14.899
6     12     0.32          100             0.04              102.587                     15.6444
6     12     0.32          100             0.0432              147.917                     18.7854
6     12     0.32          100             0.0464              178.931                     20.6612
6     12     0.32          100             0.0496              245.732                     24.2127
6     12     0.32          100             0.0528              412.735                     31.3797
6     12     0.32          100             0.056              734.811                     41.8698
6     12     0.32          100             0.0592              1095.06                     51.113
6     12     0.32          100             0.0624              1216.73                     53.8779
6     12     0.32          100             0.0656              1438.61                     58.5847
6     12     0.32          100             0.0688              1729.67                     64.2383
6     12     0.32          100             0.072              1965.86                     68.484
6     12     0.32          100             0.0752              2321.34                     74.4186
6     12     0.32          100             0.0784              2545.6                     77.9305
6     12     0.32          100             0.0816              2698.29                     80.2336
6     12     0.32          100             0.0848              3020.36                     84.8872
6     12     0.32          100             0.088              3332.89                     89.171
6     12     0.32          100             0.0912              3511.83                     91.5333
6     12     0.32          100             0.0944              3685.99                     93.7755
6     12     0.32          100             0.0976              4008.06                     97.7867
6     12     0.32          100             0.1008              4194.15                     100.031
6     12     0.32          100             0.104              4628.36                     105.081
6     12     0.32          100             0.1072              4368.31                     102.087
6     12     0.32          100             0.1104              4151.21                     99.5176
6     12     0.32          100             0.1136              4268.11                     100.909
6     12     0.32          100             0.1168              4198.92                     100.088
6     12     0.32          100             0.12              4120.19                     99.1451
6     12     0.32          100             0.1232              4022.38                     97.9612
6     12     0.32          100             0.1264              3602.48                     92.7072
6     12     0.32          100             0.1296              3554.77                     92.0912
6     12     0.32          100             0.1328              3638.27                     93.1666
6     12     0.32          100             0.136              3256.55                     88.1438
6     12     0.32          100             0.1392              3142.03                     86.5801
6     12     0.32          100             0.1424              2877.22                     82.8512
6     12     0.32          100             0.1456              2719.76                     80.5522
6     12     0.32          100             0.1488              2485.95                     77.0121
6     12     0.32          100             0.152              2423.92                     76.0452
6     12     0.32          100             0.1552              2202.05                     72.4813
6     12     0.32          100             0.1584              2068.45                     70.2481
6     12     0.32          100             0.1616              1753.53                     64.6798
6     12     0.32          100             0.1648              1763.07                     64.8556
6     12     0.32          100             0.168              1462.47                     59.0684
6     12     0.32          100             0.1712              1288.31                     55.4399
6     12     0.32          100             0.1744              1235.82                     54.2988
6     12     0.32          100             0.1776              1002.02                     48.8934
6     12     0.32          100             0.1808              949.529                     47.5956
6     12     0.32          100             0.184              792.07                     43.4705
6     12     0.32          100             0.1872              799.227                     43.6664
6     12     0.32          100             0.1904              622.681                     38.543
6     12     0.32          100             0.1936              522.48                     35.3059
6     12     0.32          100             0.1968              450.907                     32.7987
6     12     0.32          100             0.2              350.705                     28.9257
6     12     0.32          100             0.2032              260.047                     24.908
6     12     0.32          100             0.2064              255.275                     24.6784
6     12     0.32          100             0.2096              214.718                     22.6332
6     12     0.32          100             0.2128              260.047                     24.908
6     12     0.32          100             0.216              271.976                     25.4729
6     12     0.32          100             0.2192              260.047                     24.908
6     12     0.32          100             0.2224              295.833                     26.5666
6     12     0.32          100             0.2256              310.148                     27.2018
6     12     0.32          100             0.2288              260.047                     24.908
6     12     0.32          100             0.232              314.919                     27.4102
6     12     0.32          100             0.2352              302.99                     26.8861
6     12     0.32          100             0.2384              295.833                     26.5666
6     12     0.32          100             0.2416              415.121                     31.4702
6     12     0.32          100             0.2448              391.263                     30.5525
6     12     0.32          100             0.248              436.593                     32.2738
6     12     0.32          100             0.2512              479.536                     33.8239
6     12     0.32          100             0.2544              498.622                     34.4904
6     12     0.32          100             0.2576              539.18                     35.8657
6     12     0.32          100             0.2608              543.951                     36.0241
6     12     0.32          100             0.264              594.052                     37.6465
6     12     0.32          100             0.2672              696.639                     40.7677
6     12     0.32          100             0.2704              751.512                     42.3429
6     12     0.32          100             0.2736              818.313                     44.1847
6     12     0.32          100             0.2768              963.844                     47.953
6     12     0.32          100             0.28              1164.25                     52.703
6     12     0.32          100             0.2832              1257.29                     54.7685
6     12     0.32          100             0.2864              1493.48                     59.6915
6     12     0.32          100             0.2896              1801.24                     65.5539
6     12     0.32          100             0.2928              1288.31                     55.4399
6     12     0.32          100             0.296              0                     0
6     12     0.32          100             0.2992              0                     0
6     12     0.32          100             0.3024              0                     0
6     12     0.32          100             0.3056              0                     0
6     12     0.32          100             0.3088              0                     0
6     12     0.32          100             0.312              0                     0
6     12     0.32          100             0.3152              0                     0
*******************************************************************************************************
 Average angle 99.9703 +- 0.426278 deg 
 Average E' 0.182957 +- 0.000780139 GeV 
