*******************************************************************************************************
Z     A     E(GeV)     Theta(deg)     Energy Loss(GeV)     Sigma(#mub/sr/GeV)     ERROR     Citation     
*******************************************************************************************************
6     12     0.68          32.6667             0.0034              0                     0
6     12     0.68          32.6667             0.0102              0                     0
6     12     0.68          32.6667             0.017              0                     0
6     12     0.68          32.6667             0.0238              0                     0
6     12     0.68          32.6667             0.0306              0                     0
6     12     0.68          32.6667             0.0374              824.855                     47.7826
6     12     0.68          32.6667             0.0442              7238.24                     141.546
6     12     0.68          32.6667             0.051              19229.1                     230.707
6     12     0.68          32.6667             0.0578              31903.6                     297.167
6     12     0.68          32.6667             0.0646              40254.6                     333.802
6     12     0.68          32.6667             0.0714              45964.9                     356.692
6     12     0.68          32.6667             0.0782              49698.9                     370.898
6     12     0.68          32.6667             0.085              53122.9                     383.461
6     12     0.68          32.6667             0.0918              51658.6                     378.14
6     12     0.68          32.6667             0.0986              48915.6                     367.963
6     12     0.68          32.6667             0.1054              44461.9                     350.812
6     12     0.68          32.6667             0.1122              40464.9                     334.673
6     12     0.68          32.6667             0.119              35925.5                     315.342
6     12     0.68          32.6667             0.1258              32100.1                     298.081
6     12     0.68          32.6667             0.1326              27425                     275.521
6     12     0.68          32.6667             0.1394              23835                     256.855
6     12     0.68          32.6667             0.1462              20001.3                     235.294
6     12     0.68          32.6667             0.153              16970.4                     216.734
6     12     0.68          32.6667             0.1598              14064.1                     197.304
6     12     0.68          32.6667             0.1666              11791.6                     180.662
6     12     0.68          32.6667             0.1734              8962.69                     157.507
6     12     0.68          32.6667             0.1802              7113.68                     140.323
6     12     0.68          32.6667             0.187              5594.07                     124.436
6     12     0.68          32.6667             0.1938              3947.12                     104.525
6     12     0.68          32.6667             0.2006              2914.67                     89.8205
6     12     0.68          32.6667             0.2074              2361.08                     80.8418
6     12     0.68          32.6667             0.2142              1741.05                     69.4203
6     12     0.68          32.6667             0.221              1431.04                     62.9371
6     12     0.68          32.6667             0.2278              1483.63                     64.0831
6     12     0.68          32.6667             0.2346              1757.66                     69.7506
6     12     0.68          32.6667             0.2414              1840.7                     71.3793
6     12     0.68          32.6667             0.2482              1981.87                     74.0658
6     12     0.68          32.6667             0.255              2147.94                     77.1067
6     12     0.68          32.6667             0.2618              2275.27                     79.3592
6     12     0.68          32.6667             0.2686              2535.46                     83.774
6     12     0.68          32.6667             0.2754              2582.52                     84.5478
6     12     0.68          32.6667             0.2822              2875.92                     89.2214
6     12     0.68          32.6667             0.289              3072.45                     92.2195
6     12     0.68          32.6667             0.2958              3440.59                     97.5881
6     12     0.68          32.6667             0.3026              3889                     103.753
6     12     0.68          32.6667             0.3094              4008.02                     105.328
6     12     0.68          32.6667             0.3162              4771.98                     114.929
6     12     0.68          32.6667             0.323              4979.58                     117.402
6     12     0.68          32.6667             0.3298              5560.85                     124.066
6     12     0.68          32.6667             0.3366              6374.63                     132.834
6     12     0.68          32.6667             0.3434              7119.22                     140.377
6     12     0.68          32.6667             0.3502              7337.89                     142.517
6     12     0.68          32.6667             0.357              7838.89                     147.302
6     12     0.68          32.6667             0.3638              8065.86                     149.419
6     12     0.68          32.6667             0.3706              8511.51                     153.491
6     12     0.68          32.6667             0.3774              8481.06                     153.217
6     12     0.68          32.6667             0.3842              8630.53                     154.561
6     12     0.68          32.6667             0.391              8486.6                     153.267
6     12     0.68          32.6667             0.3978              8638.83                     154.635
6     12     0.68          32.6667             0.4046              8367.57                     152.188
6     12     0.68          32.6667             0.4114              8173.81                     150.416
6     12     0.68          32.6667             0.4182              8190.42                     150.568
6     12     0.68          32.6667             0.425              8054.79                     149.317
6     12     0.68          32.6667             0.4318              7664.51                     145.654
6     12     0.68          32.6667             0.4386              7567.63                     144.731
6     12     0.68          32.6667             0.4454              7296.37                     142.113
6     12     0.68          32.6667             0.4522              6922.69                     138.426
6     12     0.68          32.6667             0.459              6452.14                     133.639
6     12     0.68          32.6667             0.4658              6324.81                     132.314
6     12     0.68          32.6667             0.4726              6095.07                     129.888
6     12     0.68          32.6667             0.4794              5967.74                     128.524
6     12     0.68          32.6667             0.4862              5361.56                     121.822
6     12     0.68          32.6667             0.493              5195.48                     119.921
6     12     0.68          32.6667             0.4998              4932.52                     116.846
6     12     0.68          32.6667             0.5066              4777.52                     114.996
6     12     0.68          32.6667             0.5134              4533.93                     112.026
6     12     0.68          32.6667             0.5202              4412.14                     110.511
6     12     0.68          32.6667             0.527              4174.1                     107.488
6     12     0.68          32.6667             0.5338              4010.79                     105.365
6     12     0.68          32.6667             0.5406              3745.06                     101.815
6     12     0.68          32.6667             0.5474              3645.42                     100.451
6     12     0.68          32.6667             0.5542              3404.6                     97.0764
6     12     0.68          32.6667             0.561              3357.55                     96.4033
6     12     0.68          32.6667             0.5678              3169.33                     93.6621
6     12     0.68          32.6667             0.5746              3100.13                     92.634
6     12     0.68          32.6667             0.5814              2441.35                     82.2045
6     12     0.68          32.6667             0.5882              1264.96                     59.1724
6     12     0.68          32.6667             0.595              155.006                     20.7136
6     12     0.68          32.6667             0.6018              0                     0
6     12     0.68          32.6667             0.6086              0                     0
6     12     0.68          32.6667             0.6154              0                     0
6     12     0.68          32.6667             0.6222              0                     0
6     12     0.68          32.6667             0.629              0                     0
6     12     0.68          32.6667             0.6358              0                     0
6     12     0.68          32.6667             0.6426              0                     0
6     12     0.68          32.6667             0.6494              0                     0
6     12     0.68          32.6667             0.6562              0                     0
6     12     0.68          32.6667             0.663              0                     0
6     12     0.68          32.6667             0.6698              0                     0
*******************************************************************************************************
 Average angle 32.5992 +- 0.05632 deg 
 Average E' 0.483539 +- 0.000835386 GeV 
