*******************************************************************************************************
Z     A     E(GeV)     Theta(deg)     Energy Loss(GeV)     Sigma(#mub/sr/GeV)     ERROR     Citation     
*******************************************************************************************************
6     12     0.4          174.833             0.002              0                     0
6     12     0.4          174.833             0.006              0                     0
6     12     0.4          174.833             0.01              0                     0
6     12     0.4          174.833             0.014              0                     0
6     12     0.4          174.833             0.018              0                     0
6     12     0.4          174.833             0.022              0                     0
6     12     0.4          174.833             0.026              0                     0
6     12     0.4          174.833             0.03              0                     0
6     12     0.4          174.833             0.034              0                     0
6     12     0.4          174.833             0.038              0                     0
6     12     0.4          174.833             0.042              0                     0
6     12     0.4          174.833             0.046              0                     0
6     12     0.4          174.833             0.05              0                     0
6     12     0.4          174.833             0.054              0                     0
6     12     0.4          174.833             0.058              0                     0
6     12     0.4          174.833             0.062              0                     0
6     12     0.4          174.833             0.066              0                     0
6     12     0.4          174.833             0.07              0                     0
6     12     0.4          174.833             0.074              0                     0
6     12     0.4          174.833             0.078              0                     0
6     12     0.4          174.833             0.082              0                     0
6     12     0.4          174.833             0.086              0                     0
6     12     0.4          174.833             0.09              0                     0
6     12     0.4          174.833             0.094              0                     0
6     12     0.4          174.833             0.098              0                     0
6     12     0.4          174.833             0.102              0                     0
6     12     0.4          174.833             0.106              0                     0
6     12     0.4          174.833             0.11              0                     0
6     12     0.4          174.833             0.114              0                     0
6     12     0.4          174.833             0.118              0                     0
6     12     0.4          174.833             0.122              0                     0
6     12     0.4          174.833             0.126              46.637                     32.9774
6     12     0.4          174.833             0.13              46.637                     32.9774
6     12     0.4          174.833             0.134              139.911                     57.1185
6     12     0.4          174.833             0.138              93.2741                     46.637
6     12     0.4          174.833             0.142              116.593                     52.1418
6     12     0.4          174.833             0.146              93.2741                     46.637
6     12     0.4          174.833             0.15              163.23                     61.695
6     12     0.4          174.833             0.154              303.141                     84.0761
6     12     0.4          174.833             0.158              279.822                     80.7777
6     12     0.4          174.833             0.162              233.185                     73.7396
6     12     0.4          174.833             0.166              279.822                     80.7777
6     12     0.4          174.833             0.17              326.459                     87.2499
6     12     0.4          174.833             0.174              443.052                     101.643
6     12     0.4          174.833             0.178              466.37                     104.284
6     12     0.4          174.833             0.182              629.6                     121.167
6     12     0.4          174.833             0.186              652.919                     123.39
6     12     0.4          174.833             0.19              513.008                     109.374
6     12     0.4          174.833             0.194              1026.02                     154.678
6     12     0.4          174.833             0.198              559.645                     114.237
6     12     0.4          174.833             0.202              862.785                     141.841
6     12     0.4          174.833             0.206              932.741                     147.479
6     12     0.4          174.833             0.21              536.326                     111.832
6     12     0.4          174.833             0.214              909.422                     145.624
6     12     0.4          174.833             0.218              559.645                     114.237
6     12     0.4          174.833             0.222              956.06                     149.311
6     12     0.4          174.833             0.226              746.193                     131.909
6     12     0.4          174.833             0.23              699.556                     127.721
6     12     0.4          174.833             0.234              606.282                     118.902
6     12     0.4          174.833             0.238              466.37                     104.284
6     12     0.4          174.833             0.242              816.148                     137.954
6     12     0.4          174.833             0.246              722.874                     129.832
6     12     0.4          174.833             0.25              489.689                     106.859
6     12     0.4          174.833             0.254              466.37                     104.284
6     12     0.4          174.833             0.258              256.504                     77.3388
6     12     0.4          174.833             0.262              326.459                     87.2499
6     12     0.4          174.833             0.266              349.778                     90.3123
6     12     0.4          174.833             0.27              396.415                     96.1447
6     12     0.4          174.833             0.274              326.459                     87.2499
6     12     0.4          174.833             0.278              256.504                     77.3388
6     12     0.4          174.833             0.282              303.141                     84.0761
6     12     0.4          174.833             0.286              139.911                     57.1185
6     12     0.4          174.833             0.29              209.867                     69.9556
6     12     0.4          174.833             0.294              256.504                     77.3388
6     12     0.4          174.833             0.298              279.822                     80.7777
6     12     0.4          174.833             0.302              186.548                     65.9547
6     12     0.4          174.833             0.306              326.459                     87.2499
6     12     0.4          174.833             0.31              349.778                     90.3123
6     12     0.4          174.833             0.314              233.185                     73.7396
6     12     0.4          174.833             0.318              396.415                     96.1447
6     12     0.4          174.833             0.322              233.185                     73.7396
6     12     0.4          174.833             0.326              303.141                     84.0761
6     12     0.4          174.833             0.33              373.096                     93.2741
6     12     0.4          174.833             0.334              443.052                     101.643
6     12     0.4          174.833             0.338              489.689                     106.859
6     12     0.4          174.833             0.342              699.556                     127.721
6     12     0.4          174.833             0.346              676.237                     125.574
6     12     0.4          174.833             0.35              676.237                     125.574
6     12     0.4          174.833             0.354              699.556                     127.721
6     12     0.4          174.833             0.358              629.6                     121.167
6     12     0.4          174.833             0.362              536.326                     111.832
6     12     0.4          174.833             0.366              1002.7                     152.91
6     12     0.4          174.833             0.37              1352.47                     177.589
6     12     0.4          174.833             0.374              1515.7                     188
6     12     0.4          174.833             0.378              1375.79                     179.113
6     12     0.4          174.833             0.382              1655.62                     196.485
6     12     0.4          174.833             0.386              1492.39                     186.548
6     12     0.4          174.833             0.39              0                     0
6     12     0.4          174.833             0.394              0                     0
*******************************************************************************************************
 Average angle 174.683 +- 4.51332 deg 
 Average E' 0.119117 +- 0.00307763 GeV 
