*******************************************************************************************************
Z     A     E(GeV)     Theta(deg)     Energy Loss(GeV)     Sigma(#mub/sr/GeV)     ERROR     Citation     
*******************************************************************************************************
6     12     0.48          57.3333             0.0024              0                     0
6     12     0.48          57.3333             0.0072              0                     0
6     12     0.48          57.3333             0.012              0                     0
6     12     0.48          57.3333             0.0168              0                     0
6     12     0.48          57.3333             0.0216              0                     0
6     12     0.48          57.3333             0.0264              0                     0
6     12     0.48          57.3333             0.0312              0                     0
6     12     0.48          57.3333             0.036              0                     0
6     12     0.48          57.3333             0.0408              0                     0
6     12     0.48          57.3333             0.0456              62.9689                     11.9
6     12     0.48          57.3333             0.0504              580.213                     36.1225
6     12     0.48          57.3333             0.0552              1828.35                     64.1229
6     12     0.48          57.3333             0.06              2804.36                     79.4147
6     12     0.48          57.3333             0.0648              3609.47                     90.096
6     12     0.48          57.3333             0.0696              4394.33                     99.41
6     12     0.48          57.3333             0.0744              5489.54                     111.11
6     12     0.48          57.3333             0.0792              6330.62                     119.318
6     12     0.48          57.3333             0.084              7133.47                     126.659
6     12     0.48          57.3333             0.0888              7598.99                     130.726
6     12     0.48          57.3333             0.0936              8482.81                     138.119
6     12     0.48          57.3333             0.0984              9463.32                     145.883
6     12     0.48          57.3333             0.1032              9719.69                     147.846
6     12     0.48          57.3333             0.108              9881.61                     149.073
6     12     0.48          57.3333             0.1128              9762.42                     148.171
6     12     0.48          57.3333             0.1176              9332.89                     144.874
6     12     0.48          57.3333             0.1224              8853.87                     141.108
6     12     0.48          57.3333             0.1272              8786.41                     140.569
6     12     0.48          57.3333             0.132              7940.82                     133.634
6     12     0.48          57.3333             0.1368              7506.79                     129.93
6     12     0.48          57.3333             0.1416              7048.02                     125.898
6     12     0.48          57.3333             0.1464              6375.6                     119.741
6     12     0.48          57.3333             0.1512              5714.42                     113.363
6     12     0.48          57.3333             0.156              5293.88                     109.112
6     12     0.48          57.3333             0.1608              5019.52                     106.247
6     12     0.48          57.3333             0.1656              4410.07                     99.5879
6     12     0.48          57.3333             0.1704              3865.84                     93.2408
6     12     0.48          57.3333             0.1752              3533                     89.1366
6     12     0.48          57.3333             0.18              3069.73                     83.0872
6     12     0.48          57.3333             0.1848              2570.48                     76.031
6     12     0.48          57.3333             0.1896              2383.82                     73.2185
6     12     0.48          57.3333             0.1944              2001.51                     67.0908
6     12     0.48          57.3333             0.1992              1695.66                     61.7524
6     12     0.48          57.3333             0.204              1369.57                     55.4979
6     12     0.48          57.3333             0.2088              1245.88                     52.9325
6     12     0.48          57.3333             0.2136              1050.23                     48.5989
6     12     0.48          57.3333             0.2184              890.56                     44.7523
6     12     0.48          57.3333             0.2232              697.155                     39.5958
6     12     0.48          57.3333             0.228              712.898                     40.0403
6     12     0.48          57.3333             0.2328              640.933                     37.9656
6     12     0.48          57.3333             0.2376              634.186                     37.7653
6     12     0.48          57.3333             0.2424              629.689                     37.6311
6     12     0.48          57.3333             0.2472              676.915                     39.0168
6     12     0.48          57.3333             0.252              728.64                     40.48
6     12     0.48          57.3333             0.2568              764.622                     41.4674
6     12     0.48          57.3333             0.2616              715.146                     40.1034
6     12     0.48          57.3333             0.2664              755.626                     41.2228
6     12     0.48          57.3333             0.2712              904.053                     45.0901
6     12     0.48          57.3333             0.276              861.324                     44.0116
6     12     0.48          57.3333             0.2808              881.564                     44.5257
6     12     0.48          57.3333             0.2856              944.533                     46.0885
6     12     0.48          57.3333             0.2904              1083.96                     49.3732
6     12     0.48          57.3333             0.2952              1108.7                     49.9334
6     12     0.48          57.3333             0.3              1320.1                     54.4862
6     12     0.48          57.3333             0.3048              1380.82                     55.7253
6     12     0.48          57.3333             0.3096              1403.31                     56.1772
6     12     0.48          57.3333             0.3144              1477.52                     57.6435
6     12     0.48          57.3333             0.3192              1830.59                     64.1623
6     12     0.48          57.3333             0.324              1992.51                     66.9398
6     12     0.48          57.3333             0.3288              2080.22                     68.3973
6     12     0.48          57.3333             0.3336              2271.38                     71.4708
6     12     0.48          57.3333             0.3384              2368.08                     72.9763
6     12     0.48          57.3333             0.3432              2642.44                     77.088
6     12     0.48          57.3333             0.348              2784.12                     79.1276
6     12     0.48          57.3333             0.3528              2817.86                     79.6056
6     12     0.48          57.3333             0.3576              2894.32                     80.6784
6     12     0.48          57.3333             0.3624              3161.94                     84.3258
6     12     0.48          57.3333             0.3672              3177.68                     84.5355
6     12     0.48          57.3333             0.372              3276.63                     85.8416
6     12     0.48          57.3333             0.3768              3407.07                     87.5335
6     12     0.48          57.3333             0.3816              3402.57                     87.4757
6     12     0.48          57.3333             0.3864              3645.45                     90.5439
6     12     0.48          57.3333             0.3912              3751.15                     91.8472
6     12     0.48          57.3333             0.396              3485.78                     88.5388
6     12     0.48          57.3333             0.4008              3665.69                     90.7949
6     12     0.48          57.3333             0.4056              3618.46                     90.2082
6     12     0.48          57.3333             0.4104              3739.9                     91.7094
6     12     0.48          57.3333             0.4152              3539.75                     89.2216
6     12     0.48          57.3333             0.42              3737.65                     91.6818
6     12     0.48          57.3333             0.4248              3721.91                     91.4886
6     12     0.48          57.3333             0.4296              3517.26                     88.9378
6     12     0.48          57.3333             0.4344              1988.02                     66.8643
6     12     0.48          57.3333             0.4392              0                     0
6     12     0.48          57.3333             0.444              0                     0
6     12     0.48          57.3333             0.4488              0                     0
6     12     0.48          57.3333             0.4536              0                     0
6     12     0.48          57.3333             0.4584              0                     0
6     12     0.48          57.3333             0.4632              0                     0
6     12     0.48          57.3333             0.468              0                     0
6     12     0.48          57.3333             0.4728              0                     0
*******************************************************************************************************
 Average angle 57.2979 +- 0.161824 deg 
 Average E' 0.277198 +- 0.00078288 GeV 
