*******************************************************************************************************
Z     A     E(GeV)     Theta(deg)     Energy Loss(GeV)     Sigma(#mub/sr/GeV)     ERROR     Citation     
*******************************************************************************************************
6     12     0.2          147.333             0.001              44.2992                     14.7664
6     12     0.2          147.333             0.003              83.6763                     20.2945
6     12     0.2          147.333             0.005              68.9099                     18.417
6     12     0.2          147.333             0.007              83.6763                     20.2945
6     12     0.2          147.333             0.009              44.2992                     14.7664
6     12     0.2          147.333             0.011              73.8321                     19.0634
6     12     0.2          147.333             0.013              78.7542                     19.6886
6     12     0.2          147.333             0.015              88.5985                     20.8829
6     12     0.2          147.333             0.017              78.7542                     19.6886
6     12     0.2          147.333             0.019              152.586                     27.4053
6     12     0.2          147.333             0.021              108.287                     23.0869
6     12     0.2          147.333             0.023              132.898                     25.5762
6     12     0.2          147.333             0.025              191.963                     30.7387
6     12     0.2          147.333             0.027              152.586                     27.4053
6     12     0.2          147.333             0.029              137.82                     26.0455
6     12     0.2          147.333             0.031              172.275                     29.1198
6     12     0.2          147.333             0.033              177.197                     29.5328
6     12     0.2          147.333             0.035              211.652                     32.2766
6     12     0.2          147.333             0.037              319.939                     39.6835
6     12     0.2          147.333             0.039              477.447                     48.4774
6     12     0.2          147.333             0.041              797.386                     62.6486
6     12     0.2          147.333             0.043              1068.1                     72.5076
6     12     0.2          147.333             0.045              1255.15                     78.6002
6     12     0.2          147.333             0.047              1767.05                     93.2612
6     12     0.2          147.333             0.049              2101.75                     101.711
6     12     0.2          147.333             0.051              2766.24                     116.687
6     12     0.2          147.333             0.053              2869.61                     118.847
6     12     0.2          147.333             0.055              3332.29                     128.07
6     12     0.2          147.333             0.057              3829.42                     137.291
6     12     0.2          147.333             0.059              4026.31                     140.777
6     12     0.2          147.333             0.061              4149.36                     142.912
6     12     0.2          147.333             0.063              4400.39                     147.171
6     12     0.2          147.333             0.065              4646.5                     151.231
6     12     0.2          147.333             0.067              4769.55                     153.22
6     12     0.2          147.333             0.069              5227.31                     160.404
6     12     0.2          147.333             0.071              5084.57                     158.199
6     12     0.2          147.333             0.073              5010.74                     157.046
6     12     0.2          147.333             0.075              5168.24                     159.495
6     12     0.2          147.333             0.077              4917.22                     155.574
6     12     0.2          147.333             0.079              5212.54                     160.178
6     12     0.2          147.333             0.081              4794.16                     153.615
6     12     0.2          147.333             0.083              4976.28                     156.505
6     12     0.2          147.333             0.085              4843.38                     154.401
6     12     0.2          147.333             0.087              4552.98                     149.701
6     12     0.2          147.333             0.089              4616.97                     150.749
6     12     0.2          147.333             0.091              4680.95                     151.79
6     12     0.2          147.333             0.093              4488.99                     148.645
6     12     0.2          147.333             0.095              4326.56                     145.931
6     12     0.2          147.333             0.097              3849.11                     137.644
6     12     0.2          147.333             0.099              3858.96                     137.82
6     12     0.2          147.333             0.101              4075.53                     141.634
6     12     0.2          147.333             0.103              3376.59                     128.919
6     12     0.2          147.333             0.105              3489.8                     131.062
6     12     0.2          147.333             0.107              3499.64                     131.247
6     12     0.2          147.333             0.109              3017.27                     121.866
6     12     0.2          147.333             0.111              3091.1                     123.348
6     12     0.2          147.333             0.113              2795.77                     117.308
6     12     0.2          147.333             0.115              2845                     118.336
6     12     0.2          147.333             0.117              2421.69                     109.178
6     12     0.2          147.333             0.119              2342.94                     107.388
6     12     0.2          147.333             0.121              2165.74                     103.248
6     12     0.2          147.333             0.123              2160.82                     103.13
6     12     0.2          147.333             0.125              1673.53                     90.7597
6     12     0.2          147.333             0.127              1584.93                     88.3246
6     12     0.2          147.333             0.129              1703.06                     91.5571
6     12     0.2          147.333             0.131              1466.8                     84.9693
6     12     0.2          147.333             0.133              1210.85                     77.2007
6     12     0.2          147.333             0.135              999.194                     70.1297
6     12     0.2          147.333             0.137              841.686                     64.3653
6     12     0.2          147.333             0.139              748.165                     60.6842
6     12     0.2          147.333             0.141              615.267                     55.0312
6     12     0.2          147.333             0.143              403.615                     44.5719
6     12     0.2          147.333             0.145              300.25                     38.4431
6     12     0.2          147.333             0.147              162.431                     28.2755
6     12     0.2          147.333             0.149              127.976                     25.0981
6     12     0.2          147.333             0.151              108.287                     23.0869
6     12     0.2          147.333             0.153              98.4428                     22.0125
6     12     0.2          147.333             0.155              103.365                     22.5561
6     12     0.2          147.333             0.157              88.5985                     20.8829
6     12     0.2          147.333             0.159              83.6763                     20.2945
6     12     0.2          147.333             0.161              73.8321                     19.0634
6     12     0.2          147.333             0.163              73.8321                     19.0634
6     12     0.2          147.333             0.165              54.1435                     16.3249
6     12     0.2          147.333             0.167              78.7542                     19.6886
6     12     0.2          147.333             0.169              68.9099                     18.417
6     12     0.2          147.333             0.171              68.9099                     18.417
6     12     0.2          147.333             0.173              29.5328                     12.0567
6     12     0.2          147.333             0.175              0                     0
6     12     0.2          147.333             0.177              0                     0
6     12     0.2          147.333             0.179              0                     0
6     12     0.2          147.333             0.181              0                     0
6     12     0.2          147.333             0.183              0                     0
6     12     0.2          147.333             0.185              0                     0
6     12     0.2          147.333             0.187              0                     0
6     12     0.2          147.333             0.189              0                     0
6     12     0.2          147.333             0.191              0                     0
6     12     0.2          147.333             0.193              0                     0
6     12     0.2          147.333             0.195              0                     0
6     12     0.2          147.333             0.197              0                     0
*******************************************************************************************************
 Average angle 147.298 +- 0.795543 deg 
 Average E' 0.114683 +- 0.000619391 GeV 
