*******************************************************************************************************
Z     A     E(GeV)     Theta(deg)     Energy Loss(GeV)     Sigma(#mub/sr/GeV)     ERROR     Citation     
*******************************************************************************************************
6     12     0.24          96             0.0012              73.0593                     13.8069
6     12     0.24          96             0.0036              83.4963                     14.7602
6     12     0.24          96             0.006              80.8871                     14.5277
6     12     0.24          96             0.0084              120.026                     17.6969
6     12     0.24          96             0.0108              88.7148                     15.2145
6     12     0.24          96             0.0132              106.98                     16.7074
6     12     0.24          96             0.0156              133.072                     18.6338
6     12     0.24          96             0.018              135.682                     18.8156
6     12     0.24          96             0.0204              122.635                     17.8882
6     12     0.24          96             0.0228              182.648                     21.8306
6     12     0.24          96             0.0252              177.43                     21.5165
6     12     0.24          96             0.0276              206.132                     23.1916
6     12     0.24          96             0.03              161.774                     20.5453
6     12     0.24          96             0.0324              232.224                     24.6157
6     12     0.24          96             0.0348              508.806                     36.4363
6     12     0.24          96             0.0372              923.678                     49.0929
6     12     0.24          96             0.0396              1636.01                     65.3358
6     12     0.24          96             0.042              2755.38                     84.7909
6     12     0.24          96             0.0444              3770.38                     99.1862
6     12     0.24          96             0.0468              4641.87                     110.054
6     12     0.24          96             0.0492              5909.97                     124.18
6     12     0.24          96             0.0516              7026.74                     135.405
6     12     0.24          96             0.054              8550.54                     149.367
6     12     0.24          96             0.0564              9654.26                     158.715
6     12     0.24          96             0.0588              10108.3                     162.404
6     12     0.24          96             0.0612              10914.5                     168.757
6     12     0.24          96             0.0636              11386.8                     172.369
6     12     0.24          96             0.066              11553.8                     173.629
6     12     0.24          96             0.0684              11663.4                     174.45
6     12     0.24          96             0.0708              11911.3                     176.294
6     12     0.24          96             0.0732              11752.1                     175.112
6     12     0.24          96             0.0756              11543.4                     173.55
6     12     0.24          96             0.078              11230.3                     171.18
6     12     0.24          96             0.0804              10784.1                     167.745
6     12     0.24          96             0.0828              10525.8                     165.724
6     12     0.24          96             0.0852              10207.4                     163.199
6     12     0.24          96             0.0876              9912.58                     160.824
6     12     0.24          96             0.09              9500.32                     157.445
6     12     0.24          96             0.0924              9137.63                     154.41
6     12     0.24          96             0.0948              8934.11                     152.681
6     12     0.24          96             0.0972              8185.25                     146.142
6     12     0.24          96             0.0996              7655.57                     141.334
6     12     0.24          96             0.102              7222.43                     137.278
6     12     0.24          96             0.1044              7071.09                     135.832
6     12     0.24          96             0.1068              6517.93                     130.411
6     12     0.24          96             0.1092              6053.48                     125.679
6     12     0.24          96             0.1116              5664.7                     121.576
6     12     0.24          96             0.114              5513.37                     119.941
6     12     0.24          96             0.1164              5129.8                     115.694
6     12     0.24          96             0.1188              4560.99                     109.091
6     12     0.24          96             0.1212              4521.85                     108.622
6     12     0.24          96             0.1236              3712.98                     98.4283
6     12     0.24          96             0.126              3412.91                     94.3672
6     12     0.24          96             0.1284              2953.68                     87.7891
6     12     0.24          96             0.1308              2823.22                     85.8284
6     12     0.24          96             0.1332              2523.15                     81.1392
6     12     0.24          96             0.1356              2254.4                     76.6963
6     12     0.24          96             0.138              1863.01                     69.7215
6     12     0.24          96             0.1404              1612.52                     64.8652
6     12     0.24          96             0.1428              1155.9                     54.9186
6     12     0.24          96             0.1452              1075.02                     52.9622
6     12     0.24          96             0.1476              808.871                     45.9408
6     12     0.24          96             0.15              636.659                     40.7579
6     12     0.24          96             0.1524              480.104                     35.3937
6     12     0.24          96             0.1548              284.409                     27.2415
6     12     0.24          96             0.1572              242.661                     25.1628
6     12     0.24          96             0.1596              193.085                     22.4457
6     12     0.24          96             0.162              169.602                     21.0365
6     12     0.24          96             0.1644              148.728                     19.6995
6     12     0.24          96             0.1668              164.383                     20.7104
6     12     0.24          96             0.1692              169.602                     21.0365
6     12     0.24          96             0.1716              172.211                     21.1977
6     12     0.24          96             0.174              180.039                     21.6741
6     12     0.24          96             0.1764              135.682                     18.8156
6     12     0.24          96             0.1788              156.556                     20.2112
6     12     0.24          96             0.1812              130.463                     18.4503
6     12     0.24          96             0.1836              169.602                     21.0365
6     12     0.24          96             0.186              169.602                     21.0365
6     12     0.24          96             0.1884              161.774                     20.5453
6     12     0.24          96             0.1908              130.463                     18.4503
6     12     0.24          96             0.1932              159.165                     20.379
6     12     0.24          96             0.1956              156.556                     20.2112
6     12     0.24          96             0.198              135.682                     18.8156
6     12     0.24          96             0.2004              169.602                     21.0365
6     12     0.24          96             0.2028              36.5296                     9.76296
6     12     0.24          96             0.2052              0                     0
6     12     0.24          96             0.2076              0                     0
6     12     0.24          96             0.21              0                     0
6     12     0.24          96             0.2124              0                     0
6     12     0.24          96             0.2148              0                     0
6     12     0.24          96             0.2172              0                     0
6     12     0.24          96             0.2196              0                     0
6     12     0.24          96             0.222              0                     0
6     12     0.24          96             0.2244              0                     0
6     12     0.24          96             0.2268              0                     0
6     12     0.24          96             0.2292              0                     0
6     12     0.24          96             0.2316              0                     0
6     12     0.24          96             0.234              0                     0
6     12     0.24          96             0.2364              0                     0
*******************************************************************************************************
 Average angle 95.9689 +- 0.275931 deg 
 Average E' 0.155578 +- 0.00044732 GeV 
