*******************************************************************************************************
Z     A     E(GeV)     Theta(deg)     Energy Loss(GeV)     Sigma(#mub/sr/GeV)     ERROR     Citation     
*******************************************************************************************************
6     12     0.4          149             0.002              0                     0
6     12     0.4          149             0.006              0                     0
6     12     0.4          149             0.01              0                     0
6     12     0.4          149             0.014              0                     0
6     12     0.4          149             0.018              0                     0
6     12     0.4          149             0.022              0                     0
6     12     0.4          149             0.026              0                     0
6     12     0.4          149             0.03              0                     0
6     12     0.4          149             0.034              0                     0
6     12     0.4          149             0.038              0                     0
6     12     0.4          149             0.042              0                     0
6     12     0.4          149             0.046              0                     0
6     12     0.4          149             0.05              0                     0
6     12     0.4          149             0.054              0                     0
6     12     0.4          149             0.058              0                     0
6     12     0.4          149             0.062              0                     0
6     12     0.4          149             0.066              0                     0
6     12     0.4          149             0.07              0                     0
6     12     0.4          149             0.074              0                     0
6     12     0.4          149             0.078              0                     0
6     12     0.4          149             0.082              0                     0
6     12     0.4          149             0.086              0                     0
6     12     0.4          149             0.09              0                     0
6     12     0.4          149             0.094              0                     0
6     12     0.4          149             0.098              0                     0
6     12     0.4          149             0.102              0                     0
6     12     0.4          149             0.106              0                     0
6     12     0.4          149             0.11              0                     0
6     12     0.4          149             0.114              4.07719                     4.07719
6     12     0.4          149             0.118              24.4631                     9.98703
6     12     0.4          149             0.122              36.6947                     12.2316
6     12     0.4          149             0.126              73.3894                     17.298
6     12     0.4          149             0.13              89.6981                     19.1237
6     12     0.4          149             0.134              118.238                     21.9563
6     12     0.4          149             0.138              203.859                     28.8301
6     12     0.4          149             0.142              167.165                     26.1067
6     12     0.4          149             0.146              224.245                     30.2372
6     12     0.4          149             0.15              199.782                     28.5403
6     12     0.4          149             0.154              362.87                     38.4641
6     12     0.4          149             0.158              330.252                     36.6947
6     12     0.4          149             0.162              395.487                     40.1557
6     12     0.4          149             0.166              489.263                     44.6634
6     12     0.4          149             0.17              538.189                     46.8433
6     12     0.4          149             0.174              538.189                     46.8433
6     12     0.4          149             0.178              583.038                     48.7561
6     12     0.4          149             0.182              721.662                     54.2435
6     12     0.4          149             0.186              676.813                     52.5309
6     12     0.4          149             0.19              954.062                     62.369
6     12     0.4          149             0.194              799.129                     57.0806
6     12     0.4          149             0.198              839.901                     58.5187
6     12     0.4          149             0.202              966.294                     62.7675
6     12     0.4          149             0.206              1023.37                     64.5948
6     12     0.4          149             0.21              966.294                     62.7675
6     12     0.4          149             0.214              909.213                     60.8854
6     12     0.4          149             0.218              970.371                     62.8998
6     12     0.4          149             0.222              803.206                     57.2261
6     12     0.4          149             0.226              729.817                     54.5491
6     12     0.4          149             0.23              689.045                     53.0035
6     12     0.4          149             0.234              721.662                     54.2435
6     12     0.4          149             0.238              615.655                     50.1013
6     12     0.4          149             0.242              607.501                     49.7684
6     12     0.4          149             0.246              611.578                     49.9352
6     12     0.4          149             0.25              493.34                     44.8491
6     12     0.4          149             0.254              493.34                     44.8491
6     12     0.4          149             0.258              407.719                     40.7719
6     12     0.4          149             0.262              399.564                     40.3621
6     12     0.4          149             0.266              497.417                     45.034
6     12     0.4          149             0.27              407.719                     40.7719
6     12     0.4          149             0.274              326.175                     36.4675
6     12     0.4          149             0.278              326.175                     36.4675
6     12     0.4          149             0.282              285.403                     34.1122
6     12     0.4          149             0.286              212.014                     29.401
6     12     0.4          149             0.29              265.017                     32.8713
6     12     0.4          149             0.294              281.326                     33.8677
6     12     0.4          149             0.298              293.558                     34.5961
6     12     0.4          149             0.302              322.098                     36.2388
6     12     0.4          149             0.306              313.944                     35.7772
6     12     0.4          149             0.31              256.863                     32.3617
6     12     0.4          149             0.314              322.098                     36.2388
6     12     0.4          149             0.318              358.793                     38.2474
6     12     0.4          149             0.322              432.182                     41.9772
6     12     0.4          149             0.326              444.414                     42.5671
6     12     0.4          149             0.33              530.035                     46.4871
6     12     0.4          149             0.334              493.34                     44.8491
6     12     0.4          149             0.338              542.266                     47.0204
6     12     0.4          149             0.342              631.964                     50.7606
6     12     0.4          149             0.346              750.203                     55.3057
6     12     0.4          149             0.35              872.518                     59.6441
6     12     0.4          149             0.354              872.518                     59.6441
6     12     0.4          149             0.358              1084.53                     66.4969
6     12     0.4          149             0.362              1092.69                     66.7465
6     12     0.4          149             0.366              1137.54                     68.1025
6     12     0.4          149             0.37              1565.64                     79.8963
6     12     0.4          149             0.374              1475.94                     77.5738
6     12     0.4          149             0.378              1675.72                     82.6574
6     12     0.4          149             0.382              2169.06                     94.0409
6     12     0.4          149             0.386              1369.94                     74.7361
6     12     0.4          149             0.39              0                     0
6     12     0.4          149             0.394              0                     0
*******************************************************************************************************
 Average angle 148.977 +- 1.47865 deg 
 Average E' 0.120512 +- 0.00119612 GeV 
