*******************************************************************************************************
Z     A     E(GeV)     Theta(deg)     Energy Loss(GeV)     Sigma(#mub/sr/GeV)     ERROR     Citation     
*******************************************************************************************************
6     12     0.48          94.6667             0.0024              0                     0
6     12     0.48          94.6667             0.0072              0                     0
6     12     0.48          94.6667             0.012              0                     0
6     12     0.48          94.6667             0.0168              0                     0
6     12     0.48          94.6667             0.0216              0                     0
6     12     0.48          94.6667             0.0264              0                     0
6     12     0.48          94.6667             0.0312              0                     0
6     12     0.48          94.6667             0.036              0                     0
6     12     0.48          94.6667             0.0408              0                     0
6     12     0.48          94.6667             0.0456              0                     0
6     12     0.48          94.6667             0.0504              0                     0
6     12     0.48          94.6667             0.0552              0                     0
6     12     0.48          94.6667             0.06              0                     0
6     12     0.48          94.6667             0.0648              0                     0
6     12     0.48          94.6667             0.0696              0                     0
6     12     0.48          94.6667             0.0744              0                     0
6     12     0.48          94.6667             0.0792              0                     0
6     12     0.48          94.6667             0.084              0                     0
6     12     0.48          94.6667             0.0888              0                     0
6     12     0.48          94.6667             0.0936              3.79893                     2.68625
6     12     0.48          94.6667             0.0984              15.1957                     5.3725
6     12     0.48          94.6667             0.1032              18.9947                     6.00664
6     12     0.48          94.6667             0.108              39.8888                     8.70445
6     12     0.48          94.6667             0.1128              148.158                     16.7756
6     12     0.48          94.6667             0.1176              112.069                     14.5901
6     12     0.48          94.6667             0.1224              176.65                     18.3178
6     12     0.48          94.6667             0.1272              243.132                     21.49
6     12     0.48          94.6667             0.132              292.518                     23.5718
6     12     0.48          94.6667             0.1368              338.105                     25.3421
6     12     0.48          94.6667             0.1416              457.772                     29.4877
6     12     0.48          94.6667             0.1464              501.459                     30.8627
6     12     0.48          94.6667             0.1512              528.052                     31.6704
6     12     0.48          94.6667             0.156              645.819                     35.0244
6     12     0.48          94.6667             0.1608              778.781                     38.4613
6     12     0.48          94.6667             0.1656              828.168                     39.662
6     12     0.48          94.6667             0.1704              871.855                     40.6947
6     12     0.48          94.6667             0.1752              991.522                     43.3977
6     12     0.48          94.6667             0.18              985.823                     43.2728
6     12     0.48          94.6667             0.1848              1094.09                     45.5872
6     12     0.48          94.6667             0.1896              1063.7                     44.9496
6     12     0.48          94.6667             0.1944              1018.11                     43.9758
6     12     0.48          94.6667             0.1992              959.231                     42.6852
6     12     0.48          94.6667             0.204              985.823                     43.2728
6     12     0.48          94.6667             0.2088              993.421                     43.4393
6     12     0.48          94.6667             0.2136              907.945                     41.5284
6     12     0.48          94.6667             0.2184              864.258                     40.517
6     12     0.48          94.6667             0.2232              879.453                     40.8717
6     12     0.48          94.6667             0.228              837.665                     39.8888
6     12     0.48          94.6667             0.2328              809.173                     39.2046
6     12     0.48          94.6667             0.2376              795.877                     38.8811
6     12     0.48          94.6667             0.2424              710.401                     36.7339
6     12     0.48          94.6667             0.2472              714.2                     36.832
6     12     0.48          94.6667             0.252              638.221                     34.8178
6     12     0.48          94.6667             0.2568              727.496                     37.1733
6     12     0.48          94.6667             0.2616              647.718                     35.0759
6     12     0.48          94.6667             0.2664              596.433                     33.6586
6     12     0.48          94.6667             0.2712              585.036                     33.3355
6     12     0.48          94.6667             0.276              535.65                     31.8975
6     12     0.48          94.6667             0.2808              529.951                     31.7274
6     12     0.48          94.6667             0.2856              453.973                     29.365
6     12     0.48          94.6667             0.2904              499.56                     30.8042
6     12     0.48          94.6667             0.2952              396.989                     27.4603
6     12     0.48          94.6667             0.3              408.385                     27.8517
6     12     0.48          94.6667             0.3048              419.782                     28.2376
6     12     0.48          94.6667             0.3096              389.391                     27.1962
6     12     0.48          94.6667             0.3144              402.687                     27.6567
6     12     0.48          94.6667             0.3192              518.555                     31.3843
6     12     0.48          94.6667             0.324              467.269                     29.792
6     12     0.48          94.6667             0.3288              463.47                     29.6706
6     12     0.48          94.6667             0.3336              505.258                     30.9794
6     12     0.48          94.6667             0.3384              529.951                     31.7274
6     12     0.48          94.6667             0.3432              600.232                     33.7657
6     12     0.48          94.6667             0.348              640.12                     34.8696
6     12     0.48          94.6667             0.3528              628.724                     34.5578
6     12     0.48          94.6667             0.3576              748.39                     37.7033
6     12     0.48          94.6667             0.3624              788.279                     38.6951
6     12     0.48          94.6667             0.3672              902.247                     41.3979
6     12     0.48          94.6667             0.372              879.453                     40.8717
6     12     0.48          94.6667             0.3768              951.633                     42.5158
6     12     0.48          94.6667             0.3816              1118.79                     46.0988
6     12     0.48          94.6667             0.3864              1162.47                     46.9902
6     12     0.48          94.6667             0.3912              1088.39                     45.4683
6     12     0.48          94.6667             0.396              1257.45                     48.8721
6     12     0.48          94.6667             0.4008              1190.97                     47.5626
6     12     0.48          94.6667             0.4056              1253.65                     48.7982
6     12     0.48          94.6667             0.4104              1367.62                     50.968
6     12     0.48          94.6667             0.4152              1398.01                     51.5312
6     12     0.48          94.6667             0.42              1417                     51.8801
6     12     0.48          94.6667             0.4248              1436                     52.2267
6     12     0.48          94.6667             0.4296              1432.2                     52.1576
6     12     0.48          94.6667             0.4344              1462.59                     52.7081
6     12     0.48          94.6667             0.4392              1417                     51.8801
6     12     0.48          94.6667             0.444              1454.99                     52.571
6     12     0.48          94.6667             0.4488              1394.21                     51.4612
6     12     0.48          94.6667             0.4536              1310.63                     49.8949
6     12     0.48          94.6667             0.4584              1396.11                     51.4962
6     12     0.48          94.6667             0.4632              36.0899                     8.27958
6     12     0.48          94.6667             0.468              0                     0
6     12     0.48          94.6667             0.4728              0                     0
*******************************************************************************************************
 Average angle 94.6443 +- 0.536739 deg 
 Average E' 0.166054 +- 0.000941713 GeV 
