*******************************************************************************************************
Z     A     E(GeV)     Theta(deg)     Energy Loss(GeV)     Sigma(#mub/sr/GeV)     ERROR     Citation     
*******************************************************************************************************
6     12     0.68          89.3333             0.0034              0                     0
6     12     0.68          89.3333             0.0102              0                     0
6     12     0.68          89.3333             0.017              0                     0
6     12     0.68          89.3333             0.0238              0                     0
6     12     0.68          89.3333             0.0306              0                     0
6     12     0.68          89.3333             0.0374              0                     0
6     12     0.68          89.3333             0.0442              0                     0
6     12     0.68          89.3333             0.051              0                     0
6     12     0.68          89.3333             0.0578              0                     0
6     12     0.68          89.3333             0.0646              0                     0
6     12     0.68          89.3333             0.0714              0                     0
6     12     0.68          89.3333             0.0782              0                     0
6     12     0.68          89.3333             0.085              0                     0
6     12     0.68          89.3333             0.0918              0                     0
6     12     0.68          89.3333             0.0986              0                     0
6     12     0.68          89.3333             0.1054              0                     0
6     12     0.68          89.3333             0.1122              0                     0
6     12     0.68          89.3333             0.119              0                     0
6     12     0.68          89.3333             0.1258              0                     0
6     12     0.68          89.3333             0.1326              0                     0
6     12     0.68          89.3333             0.1394              0                     0
6     12     0.68          89.3333             0.1462              0                     0
6     12     0.68          89.3333             0.153              0                     0
6     12     0.68          89.3333             0.1598              0                     0
6     12     0.68          89.3333             0.1666              0                     0
6     12     0.68          89.3333             0.1734              0                     0
6     12     0.68          89.3333             0.1802              0                     0
6     12     0.68          89.3333             0.187              4.48234                     2.58788
6     12     0.68          89.3333             0.1938              5.97646                     2.98823
6     12     0.68          89.3333             0.2006              17.9294                     5.17576
6     12     0.68          89.3333             0.2074              23.9058                     5.97646
6     12     0.68          89.3333             0.2142              46.3176                     8.31888
6     12     0.68          89.3333             0.221              46.3176                     8.31888
6     12     0.68          89.3333             0.2278              70.2234                     10.2431
6     12     0.68          89.3333             0.2346              83.6704                     11.1809
6     12     0.68          89.3333             0.2414              118.035                     13.28
6     12     0.68          89.3333             0.2482              165.847                     15.7415
6     12     0.68          89.3333             0.255              162.858                     15.599
6     12     0.68          89.3333             0.2618              206.188                     17.5519
6     12     0.68          89.3333             0.2686              222.623                     18.238
6     12     0.68          89.3333             0.2754              239.058                     18.8992
6     12     0.68          89.3333             0.2822              277.905                     20.377
6     12     0.68          89.3333             0.289              325.717                     22.0603
6     12     0.68          89.3333             0.2958              343.646                     22.6594
6     12     0.68          89.3333             0.3026              382.493                     23.9058
6     12     0.68          89.3333             0.3094              313.764                     21.6518
6     12     0.68          89.3333             0.3162              346.635                     22.7577
6     12     0.68          89.3333             0.323              298.823                     21.13
6     12     0.68          89.3333             0.3298              364.564                     23.3388
6     12     0.68          89.3333             0.3366              306.293                     21.3925
6     12     0.68          89.3333             0.3434              312.27                     21.6002
6     12     0.68          89.3333             0.3502              354.105                     23.0016
6     12     0.68          89.3333             0.357              277.905                     20.377
6     12     0.68          89.3333             0.3638              309.282                     21.4966
6     12     0.68          89.3333             0.3706              289.858                     20.8106
6     12     0.68          89.3333             0.3774              258.482                     19.652
6     12     0.68          89.3333             0.3842              215.153                     17.9294
6     12     0.68          89.3333             0.391              268.941                     20.0457
6     12     0.68          89.3333             0.3978              268.941                     20.0457
6     12     0.68          89.3333             0.4046              239.058                     18.8992
6     12     0.68          89.3333             0.4114              277.905                     20.377
6     12     0.68          89.3333             0.4182              274.917                     20.2672
6     12     0.68          89.3333             0.425              279.399                     20.4317
6     12     0.68          89.3333             0.4318              346.635                     22.7577
6     12     0.68          89.3333             0.4386              367.552                     23.4343
6     12     0.68          89.3333             0.4454              360.082                     23.1949
6     12     0.68          89.3333             0.4522              407.893                     24.6868
6     12     0.68          89.3333             0.459              479.611                     26.7693
6     12     0.68          89.3333             0.4658              418.352                     25.0013
6     12     0.68          89.3333             0.4726              485.587                     26.9355
6     12     0.68          89.3333             0.4794              509.493                     27.5906
6     12     0.68          89.3333             0.4862              594.658                     29.8075
6     12     0.68          89.3333             0.493              545.352                     28.545
6     12     0.68          89.3333             0.4998              564.775                     29.0489
6     12     0.68          89.3333             0.5066              512.481                     27.6714
6     12     0.68          89.3333             0.5134              521.446                     27.9124
6     12     0.68          89.3333             0.5202              566.269                     29.0873
6     12     0.68          89.3333             0.527              539.375                     28.3882
6     12     0.68          89.3333             0.5338              513.975                     27.7117
6     12     0.68          89.3333             0.5406              530.411                     28.1513
6     12     0.68          89.3333             0.5474              512.481                     27.6714
6     12     0.68          89.3333             0.5542              524.434                     27.9922
6     12     0.68          89.3333             0.561              521.446                     27.9124
6     12     0.68          89.3333             0.5678              518.458                     27.8323
6     12     0.68          89.3333             0.5746              539.375                     28.3882
6     12     0.68          89.3333             0.5814              475.128                     26.6439
6     12     0.68          89.3333             0.5882              448.234                     25.8788
6     12     0.68          89.3333             0.595              481.105                     26.8109
6     12     0.68          89.3333             0.6018              410.882                     24.7771
6     12     0.68          89.3333             0.6086              394.446                     24.2765
6     12     0.68          89.3333             0.6154              407.893                     24.6868
6     12     0.68          89.3333             0.6222              404.905                     24.5962
6     12     0.68          89.3333             0.629              340.658                     22.5606
6     12     0.68          89.3333             0.6358              378.011                     23.7653
6     12     0.68          89.3333             0.6426              406.399                     24.6416
6     12     0.68          89.3333             0.6494              422.834                     25.1349
6     12     0.68          89.3333             0.6562              404.905                     24.5962
6     12     0.68          89.3333             0.663              309.282                     21.4966
6     12     0.68          89.3333             0.6698              0                     0
*******************************************************************************************************
 Average angle 89.3087 +- 0.702261 deg 
 Average E' 0.205808 +- 0.00161833 GeV 
