*******************************************************************************************************
Z     A     E(GeV)     Theta(deg)     Energy Loss(GeV)     Sigma(#mub/sr/GeV)     ERROR     Citation     
*******************************************************************************************************
6     12     0.48          116             0.0024              0                     0
6     12     0.48          116             0.0072              0                     0
6     12     0.48          116             0.012              0                     0
6     12     0.48          116             0.0168              0                     0
6     12     0.48          116             0.0216              0                     0
6     12     0.48          116             0.0264              0                     0
6     12     0.48          116             0.0312              0                     0
6     12     0.48          116             0.036              0                     0
6     12     0.48          116             0.0408              0                     0
6     12     0.48          116             0.0456              0                     0
6     12     0.48          116             0.0504              0                     0
6     12     0.48          116             0.0552              0                     0
6     12     0.48          116             0.06              0                     0
6     12     0.48          116             0.0648              0                     0
6     12     0.48          116             0.0696              0                     0
6     12     0.48          116             0.0744              0                     0
6     12     0.48          116             0.0792              0                     0
6     12     0.48          116             0.084              0                     0
6     12     0.48          116             0.0888              0                     0
6     12     0.48          116             0.0936              0                     0
6     12     0.48          116             0.0984              0                     0
6     12     0.48          116             0.1032              0                     0
6     12     0.48          116             0.108              0                     0
6     12     0.48          116             0.1128              0                     0
6     12     0.48          116             0.1176              0                     0
6     12     0.48          116             0.1224              4.21269                     2.97882
6     12     0.48          116             0.1272              2.10634                     2.10634
6     12     0.48          116             0.132              14.7444                     5.57286
6     12     0.48          116             0.1368              23.1698                     6.98596
6     12     0.48          116             0.1416              35.8079                     8.68468
6     12     0.48          116             0.1464              71.6157                     12.282
6     12     0.48          116             0.1512              71.6157                     12.282
6     12     0.48          116             0.156              86.3601                     13.4872
6     12     0.48          116             0.1608              107.424                     15.0423
6     12     0.48          116             0.1656              149.55                     17.7484
6     12     0.48          116             0.1704              183.252                     19.6467
6     12     0.48          116             0.1752              219.06                     21.4806
6     12     0.48          116             0.18              282.25                     24.3827
6     12     0.48          116             0.1848              280.144                     24.2916
6     12     0.48          116             0.1896              330.696                     26.3924
6     12     0.48          116             0.1944              368.61                     27.8643
6     12     0.48          116             0.1992              353.866                     27.3013
6     12     0.48          116             0.204              467.609                     31.3838
6     12     0.48          116             0.2088              494.991                     32.2897
6     12     0.48          116             0.2136              549.756                     34.029
6     12     0.48          116             0.2184              535.012                     33.5696
6     12     0.48          116             0.2232              549.756                     34.029
6     12     0.48          116             0.228              516.054                     32.9695
6     12     0.48          116             0.2328              526.586                     33.3042
6     12     0.48          116             0.2376              448.651                     30.7411
6     12     0.48          116             0.2424              501.31                     32.4951
6     12     0.48          116             0.2472              482.353                     31.8748
6     12     0.48          116             0.252              478.14                     31.7353
6     12     0.48          116             0.2568              501.31                     32.4951
6     12     0.48          116             0.2616              482.353                     31.8748
6     12     0.48          116             0.2664              505.523                     32.6314
6     12     0.48          116             0.2712              400.206                     29.034
6     12     0.48          116             0.276              478.14                     31.7353
6     12     0.48          116             0.2808              473.928                     31.5952
6     12     0.48          116             0.2856              438.12                     30.3781
6     12     0.48          116             0.2904              414.95                     29.564
6     12     0.48          116             0.2952              427.588                     30.0108
6     12     0.48          116             0.3              398.099                     28.9575
6     12     0.48          116             0.3048              427.588                     30.0108
6     12     0.48          116             0.3096              362.291                     27.6245
6     12     0.48          116             0.3144              446.545                     30.6688
6     12     0.48          116             0.3192              328.59                     26.3082
6     12     0.48          116             0.324              368.61                     27.8643
6     12     0.48          116             0.3288              360.185                     27.544
6     12     0.48          116             0.3336              332.802                     26.4763
6     12     0.48          116             0.3384              381.248                     28.338
6     12     0.48          116             0.3432              438.12                     30.3781
6     12     0.48          116             0.348              385.461                     28.4941
6     12     0.48          116             0.3528              417.056                     29.6389
6     12     0.48          116             0.3576              469.715                     31.4544
6     12     0.48          116             0.3624              494.991                     32.2897
6     12     0.48          116             0.3672              486.566                     32.0137
6     12     0.48          116             0.372              589.777                     35.2459
6     12     0.48          116             0.3768              581.351                     34.9932
6     12     0.48          116             0.3816              652.967                     37.086
6     12     0.48          116             0.3864              701.413                     38.4372
6     12     0.48          116             0.3912              671.924                     37.6205
6     12     0.48          116             0.396              815.155                     41.4367
6     12     0.48          116             0.4008              810.943                     41.3295
6     12     0.48          116             0.4056              893.09                     43.3723
6     12     0.48          116             0.4104              863.601                     42.6502
6     12     0.48          116             0.4152              920.473                     44.0322
6     12     0.48          116             0.42              968.919                     45.1761
6     12     0.48          116             0.4248              1006.83                     46.0515
6     12     0.48          116             0.4296              966.812                     45.1269
6     12     0.48          116             0.4344              996.301                     45.81
6     12     0.48          116             0.4392              1078.45                     47.6611
6     12     0.48          116             0.444              1107.94                     48.3084
6     12     0.48          116             0.4488              1048.96                     47.005
6     12     0.48          116             0.4536              989.982                     45.6645
6     12     0.48          116             0.4584              968.919                     45.1761
6     12     0.48          116             0.4632              933.111                     44.3334
6     12     0.48          116             0.468              0                     0
6     12     0.48          116             0.4728              0                     0
*******************************************************************************************************
 Average angle 115.975 +- 0.888079 deg 
 Average E' 0.137058 +- 0.00104952 GeV 
