*******************************************************************************************************
Z     A     E(GeV)     Theta(deg)     Energy Loss(GeV)     Sigma(#mub/sr/GeV)     ERROR     Citation     
*******************************************************************************************************
6     12     3.595          10             0.017975              0                     0
6     12     3.595          10             0.053925              167.973                     20.2216
6     12     3.595          10             0.089875              8722.43                     145.718
6     12     3.595          10             0.125825              33205.1                     284.314
6     12     3.595          10             0.161775              61169                     385.888
6     12     3.595          10             0.197725              73165.7                     422.035
6     12     3.595          10             0.233675              68311.5                     407.795
6     12     3.595          10             0.269625              56149.3                     369.715
6     12     3.595          10             0.305575              44386.3                     328.715
6     12     3.595          10             0.341525              37662.5                     302.796
6     12     3.595          10             0.377475              34322.5                     289.058
6     12     3.595          10             0.413425              33765                     286.701
6     12     3.595          10             0.449375              36725.2                     299.004
6     12     3.595          10             0.485325              38470.7                     306.027
6     12     3.595          10             0.521275              38582.7                     306.472
6     12     3.595          10             0.557225              36620.6                     298.578
6     12     3.595          10             0.593175              34115.6                     288.185
6     12     3.595          10             0.629125              31352.5                     276.269
6     12     3.595          10             0.665075              28628.5                     263.994
6     12     3.595          10             0.701025              27311.4                     257.85
6     12     3.595          10             0.736975              26685.8                     254.88
6     12     3.595          10             0.772925              27114.3                     256.918
6     12     3.595          10             0.808875              28100.2                     261.547
6     12     3.595          10             0.844825              29611.9                     268.49
6     12     3.595          10             0.880775              31111.5                     275.205
6     12     3.595          10             0.916725              32214.3                     280.04
6     12     3.595          10             0.952675              32474.8                     281.17
6     12     3.595          10             0.988625              33175.9                     284.189
6     12     3.595          10             1.02458              32857                     282.819
6     12     3.595          10             1.06053              33012.8                     283.489
6     12     3.595          10             1.09648              32221.6                     280.071
6     12     3.595          10             1.13243              31058                     274.968
6     12     3.595          10             1.16838              29865.1                     269.636
6     12     3.595          10             1.20433              28117.2                     261.626
6     12     3.595          10             1.24028              25936                     251.274
6     12     3.595          10             1.27623              24713.9                     245.282
6     12     3.595          10             1.31218              22876                     235.985
6     12     3.595          10             1.34813              20843.3                     225.257
6     12     3.595          10             1.38408              19584.7                     218.35
6     12     3.595          10             1.42003              18593.9                     212.755
6     12     3.595          10             1.45598              17301.2                     205.227
6     12     3.595          10             1.49193              16670.7                     201.452
6     12     3.595          10             1.52788              15587.4                     194.797
6     12     3.595          10             1.56383              15029.9                     191.282
6     12     3.595          10             1.59978              14219.3                     186.052
6     12     3.595          10             1.63573              13596.1                     181.929
6     12     3.595          10             1.67168              13019.1                     178.027
6     12     3.595          10             1.70763              12661.3                     175.563
6     12     3.595          10             1.74358              12016.2                     171.032
6     12     3.595          10             1.77953              11777.6                     169.326
6     12     3.595          10             1.81548              11186                     165.019
6     12     3.595          10             1.85143              10918.2                     163.032
6     12     3.595          10             1.88738              10592                     160.578
6     12     3.595          10             1.92333              10136.8                     157.089
6     12     3.595          10             1.95928              9837.38                     154.752
6     12     3.595          10             1.99523              9744.87                     154.022
6     12     3.595          10             2.03118              9265.3                     150.184
6     12     3.595          10             2.06712              8861.19                     146.873
6     12     3.595          10             2.10308              8673.74                     145.311
6     12     3.595          10             2.13903              8255.02                     141.76
6     12     3.595          10             2.17497              7751.1                     137.365
6     12     3.595          10             2.21093              7931.25                     138.952
6     12     3.595          10             2.24688              7695.11                     136.868
6     12     3.595          10             2.28282              6894.2                     129.55
6     12     3.595          10             2.31878              6830.9                     128.954
6     12     3.595          10             2.35473              6728.66                     127.985
6     12     3.595          10             2.39067              6387.84                     124.702
6     12     3.595          10             2.42663              6117.63                     122.036
6     12     3.595          10             2.46258              5842.54                     119.26
6     12     3.595          10             2.49852              5606.41                     116.825
6     12     3.595          10             2.53448              5467.64                     115.371
6     12     3.595          10             2.57043              5289.93                     113.48
6     12     3.595          10             2.60637              5126.83                     111.717
6     12     3.595          10             2.64233              4856.61                     108.733
6     12     3.595          10             2.67828              4591.26                     105.721
6     12     3.595          10             2.71422              4398.95                     103.483
6     12     3.595          10             2.75018              4226.1                     101.43
6     12     3.595          10             2.78613              4026.48                     99.0053
6     12     3.595          10             2.82207              3748.96                     95.5324
6     12     3.595          10             2.85803              3675.93                     94.5974
6     12     3.595          10             2.89398              3344.85                     90.2368
6     12     3.595          10             2.92992              3162.28                     87.7395
6     12     3.595          10             2.96588              2967.52                     84.9948
6     12     3.595          10             3.00183              2965.09                     84.9599
6     12     3.595          10             3.03777              2750.86                     81.8332
6     12     3.595          10             3.07373              2680.27                     80.7763
6     12     3.595          10             3.10968              2405.18                     76.519
6     12     3.595          10             3.14562              2117.92                     71.8043
6     12     3.595          10             3.18158              2049.76                     70.6393
6     12     3.595          10             3.21753              1925.6                     68.4666
6     12     3.595          10             3.25347              1738.16                     65.0489
6     12     3.595          10             3.28943              1562.88                     61.6819
6     12     3.595          10             3.32538              1243.97                     55.0302
6     12     3.595          10             3.36132              1095.48                     51.6413
6     12     3.595          10             3.39728              635.376                     39.3288
6     12     3.595          10             3.43323              248.308                     24.5862
6     12     3.595          10             3.46917              4.86878                     3.44275
6     12     3.595          10             3.50513              0                     0
6     12     3.595          10             3.54108              0                     0
*******************************************************************************************************
 Average angle 9.76261 +- 0.0117925 deg 
 Average E' 2.59976 +- 0.00314031 GeV 
