*******************************************************************************************************
Z     A     E(GeV)     Theta(deg)     Energy Loss(GeV)     Sigma(#mub/sr/GeV)     ERROR     Citation     
*******************************************************************************************************
6     12     0.16          156             0.0008              17.0261                     9.83004
6     12     0.16          156             0.0024              102.157                     24.0786
6     12     0.16          156             0.004              51.0784                     17.0261
6     12     0.16          156             0.0056              45.403                     16.0524
6     12     0.16          156             0.0072              68.1045                     19.6601
6     12     0.16          156             0.0088              73.7799                     20.4629
6     12     0.16          156             0.0104              45.403                     16.0524
6     12     0.16          156             0.012              56.7537                     17.9471
6     12     0.16          156             0.0136              56.7537                     17.9471
6     12     0.16          156             0.0152              68.1045                     19.6601
6     12     0.16          156             0.0168              119.183                     26.0078
6     12     0.16          156             0.0184              85.1306                     21.9806
6     12     0.16          156             0.02              56.7537                     17.9471
6     12     0.16          156             0.0216              113.507                     25.381
6     12     0.16          156             0.0232              119.183                     26.0078
6     12     0.16          156             0.0248              107.832                     24.7384
6     12     0.16          156             0.0264              136.209                     27.8035
6     12     0.16          156             0.028              141.884                     28.3769
6     12     0.16          156             0.0296              153.235                     29.4901
6     12     0.16          156             0.0312              454.03                     50.7621
6     12     0.16          156             0.0328              686.72                     62.4291
6     12     0.16          156             0.0344              1208.85                     82.8294
6     12     0.16          156             0.036              1259.93                     84.5612
6     12     0.16          156             0.0376              2065.84                     108.279
6     12     0.16          156             0.0392              2576.62                     120.927
6     12     0.16          156             0.0408              2792.28                     125.886
6     12     0.16          156             0.0424              3399.55                     138.902
6     12     0.16          156             0.044              3933.03                     149.404
6     12     0.16          156             0.0456              4313.28                     156.459
6     12     0.16          156             0.0472              5238.37                     172.423
6     12     0.16          156             0.0488              5641.32                     178.932
6     12     0.16          156             0.0504              6027.25                     184.951
6     12     0.16          156             0.052              6770.72                     196.026
6     12     0.16          156             0.0536              7156.65                     201.536
6     12     0.16          156             0.0552              7519.87                     206.587
6     12     0.16          156             0.0568              7883.09                     211.517
6     12     0.16          156             0.0584              7752.56                     209.759
6     12     0.16          156             0.06              7605                     207.753
6     12     0.16          156             0.0616              7559.6                     207.132
6     12     0.16          156             0.0632              7814.99                     210.602
6     12     0.16          156             0.0648              7332.58                     203.998
6     12     0.16          156             0.0664              7202.05                     202.174
6     12     0.16          156             0.068              7593.65                     207.598
6     12     0.16          156             0.0696              7752.56                     209.759
6     12     0.16          156             0.0712              7661.76                     208.527
6     12     0.16          156             0.0728              7065.84                     200.253
6     12     0.16          156             0.0744              7009.09                     199.447
6     12     0.16          156             0.076              6594.78                     193.463
6     12     0.16          156             0.0776              6838.83                     197.01
6     12     0.16          156             0.0792              6657.21                     194.376
6     12     0.16          156             0.0808              6702.62                     195.038
6     12     0.16          156             0.0824              6084                     185.82
6     12     0.16          156             0.084              6101.03                     186.08
6     12     0.16          156             0.0856              6055.62                     185.386
6     12     0.16          156             0.0872              6288.31                     188.914
6     12     0.16          156             0.0888              5516.46                     176.941
6     12     0.16          156             0.0904              5312.15                     173.633
6     12     0.16          156             0.092              5300.8                     173.447
6     12     0.16          156             0.0936              5323.5                     173.818
6     12     0.16          156             0.0952              4824.07                     165.464
6     12     0.16          156             0.0968              4682.18                     163.013
6     12     0.16          156             0.0984              4341.66                     156.973
6     12     0.16          156             0.1              4432.47                     158.606
6     12     0.16          156             0.1016              4131.67                     153.13
6     12     0.16          156             0.1032              4245.18                     155.219
6     12     0.16          156             0.1048              3558.46                     142.111
6     12     0.16          156             0.1064              3728.72                     145.471
6     12     0.16          156             0.108              3371.17                     138.321
6     12     0.16          156             0.1096              3047.68                     131.517
6     12     0.16          156             0.1112              2922.82                     128.795
6     12     0.16          156             0.1128              2735.53                     124.6
6     12     0.16          156             0.1144              2480.14                     118.641
6     12     0.16          156             0.116              2139.62                     110.196
6     12     0.16          156             0.1176              1906.93                     104.031
6     12     0.16          156             0.1192              1458.57                     90.9832
6     12     0.16          156             0.1208              1379.12                     88.4703
6     12     0.16          156             0.1224              862.657                     69.9707
6     12     0.16          156             0.124              681.045                     62.1706
6     12     0.16          156             0.1256              232.69                     36.3401
6     12     0.16          156             0.1272              68.1045                     19.6601
6     12     0.16          156             0.1288              0                     0
6     12     0.16          156             0.1304              0                     0
6     12     0.16          156             0.132              0                     0
6     12     0.16          156             0.1336              0                     0
6     12     0.16          156             0.1352              0                     0
6     12     0.16          156             0.1368              0                     0
6     12     0.16          156             0.1384              0                     0
6     12     0.16          156             0.14              0                     0
6     12     0.16          156             0.1416              0                     0
6     12     0.16          156             0.1432              0                     0
6     12     0.16          156             0.1448              0                     0
6     12     0.16          156             0.1464              0                     0
6     12     0.16          156             0.148              0                     0
6     12     0.16          156             0.1496              0                     0
6     12     0.16          156             0.1512              0                     0
6     12     0.16          156             0.1528              0                     0
6     12     0.16          156             0.1544              0                     0
6     12     0.16          156             0.156              0                     0
6     12     0.16          156             0.1576              0                     0
*******************************************************************************************************
 Average angle 155.965 +- 0.698043 deg 
 Average E' 0.08573 +- 0.000383696 GeV 
