*******************************************************************************************************
Z     A     E(GeV)     Theta(deg)     Energy Loss(GeV)     Sigma(#mub/sr/GeV)     ERROR     Citation     
*******************************************************************************************************
6     12     0.4          87             0.002              0                     0
6     12     0.4          87             0.006              0                     0
6     12     0.4          87             0.01              0                     0
6     12     0.4          87             0.014              0                     0
6     12     0.4          87             0.018              0                     0
6     12     0.4          87             0.022              0                     0
6     12     0.4          87             0.026              0                     0
6     12     0.4          87             0.03              0                     0
6     12     0.4          87             0.034              0                     0
6     12     0.4          87             0.038              0                     0
6     12     0.4          87             0.042              0                     0
6     12     0.4          87             0.046              0                     0
6     12     0.4          87             0.05              0                     0
6     12     0.4          87             0.054              4.20558                     2.97379
6     12     0.4          87             0.058              71.4948                     12.2613
6     12     0.4          87             0.062              161.915                     18.4519
6     12     0.4          87             0.066              258.643                     23.3211
6     12     0.4          87             0.07              439.483                     30.3997
6     12     0.4          87             0.074              567.753                     34.5524
6     12     0.4          87             0.078              635.042                     36.5426
6     12     0.4          87             0.082              952.563                     44.7553
6     12     0.4          87             0.086              1259.57                     51.4647
6     12     0.4          87             0.09              1368.92                     53.652
6     12     0.4          87             0.094              1553.96                     57.1634
6     12     0.4          87             0.098              1900.92                     63.2237
6     12     0.4          87             0.102              2163.77                     67.4533
6     12     0.4          87             0.106              2283.63                     69.2964
6     12     0.4          87             0.11              2575.92                     73.5976
6     12     0.4          87             0.114              2811.43                     76.8885
6     12     0.4          87             0.118              3025.91                     79.7675
6     12     0.4          87             0.122              3286.66                     83.1333
6     12     0.4          87             0.126              3316.1                     83.5048
6     12     0.4          87             0.13              3652.54                     87.6386
6     12     0.4          87             0.134              3541.1                     86.2913
6     12     0.4          87             0.138              3484.32                     85.5967
6     12     0.4          87             0.142              3473.81                     85.4675
6     12     0.4          87             0.146              3326.61                     83.6371
6     12     0.4          87             0.15              3280.35                     83.0535
6     12     0.4          87             0.154              2958.62                     78.8756
6     12     0.4          87             0.158              2800.92                     76.7446
6     12     0.4          87             0.162              2895.54                     78.0302
6     12     0.4          87             0.166              2742.04                     75.9337
6     12     0.4          87             0.17              2561.2                     73.387
6     12     0.4          87             0.174              2231.06                     68.4941
6     12     0.4          87             0.178              2245.78                     68.7197
6     12     0.4          87             0.182              2088.07                     66.2629
6     12     0.4          87             0.186              1911.44                     63.3983
6     12     0.4          87             0.19              1606.53                     58.1222
6     12     0.4          87             0.194              1659.1                     59.0655
6     12     0.4          87             0.198              1335.27                     52.9886
6     12     0.4          87             0.202              1219.62                     50.6419
6     12     0.4          87             0.206              1209.1                     50.4231
6     12     0.4          87             0.21              1024.06                     46.4045
6     12     0.4          87             0.214              908.405                     43.7057
6     12     0.4          87             0.218              820.088                     41.5268
6     12     0.4          87             0.222              691.818                     38.1411
6     12     0.4          87             0.226              656.07                     37.1427
6     12     0.4          87             0.23              584.575                     35.0605
6     12     0.4          87             0.234              496.258                     32.3037
6     12     0.4          87             0.238              380.605                     28.2901
6     12     0.4          87             0.242              431.072                     30.1074
6     12     0.4          87             0.246              372.194                     27.9758
6     12     0.4          87             0.25              334.343                     26.5152
6     12     0.4          87             0.254              477.333                     31.6817
6     12     0.4          87             0.258              405.838                     29.2129
6     12     0.4          87             0.262              473.128                     31.5418
6     12     0.4          87             0.266              367.988                     27.8173
6     12     0.4          87             0.27              529.903                     33.3807
6     12     0.4          87             0.274              550.931                     34.0366
6     12     0.4          87             0.278              559.342                     34.2955
6     12     0.4          87             0.282              595.089                     35.3744
6     12     0.4          87             0.286              561.445                     34.3599
6     12     0.4          87             0.29              614.014                     35.9325
6     12     0.4          87             0.294              626.631                     36.2998
6     12     0.4          87             0.298              771.724                     40.2836
6     12     0.4          87             0.302              754.901                     39.8422
6     12     0.4          87             0.306              771.724                     40.2836
6     12     0.4          87             0.31              921.022                     44.0081
6     12     0.4          87             0.314              1019.85                     46.3091
6     12     0.4          87             0.318              1158.64                     49.3596
6     12     0.4          87             0.322              1127.09                     48.6831
6     12     0.4          87             0.326              1316.35                     52.6118
6     12     0.4          87             0.33              1478.26                     55.7537
6     12     0.4          87             0.334              1690.64                     59.6244
6     12     0.4          87             0.338              1787.37                     61.3063
6     12     0.4          87             0.342              2075.45                     66.0624
6     12     0.4          87             0.346              2184.8                     67.7803
6     12     0.4          87             0.35              2365.64                     70.5297
6     12     0.4          87             0.354              2561.2                     73.387
6     12     0.4          87             0.358              2866.1                     77.6325
6     12     0.4          87             0.362              2981.76                     79.1833
6     12     0.4          87             0.366              3274.04                     82.9736
6     12     0.4          87             0.37              3345.54                     83.8747
6     12     0.4          87             0.374              1440.41                     55.0353
6     12     0.4          87             0.378              0                     0
6     12     0.4          87             0.382              0                     0
6     12     0.4          87             0.386              0                     0
6     12     0.4          87             0.39              0                     0
6     12     0.4          87             0.394              0                     0
*******************************************************************************************************
 Average angle 86.9737 +- 0.353604 deg 
 Average E' 0.190874 +- 0.000776027 GeV 
