*******************************************************************************************************
Z     A     E(GeV)     Theta(deg)     Energy Loss(GeV)     Sigma(#mub/sr/GeV)     ERROR     Citation     
*******************************************************************************************************
6     12     0.4          56             0.002              0                     0
6     12     0.4          56             0.006              0                     0
6     12     0.4          56             0.01              0                     0
6     12     0.4          56             0.014              0                     0
6     12     0.4          56             0.018              0                     0
6     12     0.4          56             0.022              2.53295                     2.53295
6     12     0.4          56             0.026              5.06589                     3.58213
6     12     0.4          56             0.03              5.06589                     3.58213
6     12     0.4          56             0.034              25.3295                     8.00988
6     12     0.4          56             0.038              742.153                     43.3571
6     12     0.4          56             0.042              2864.76                     85.1838
6     12     0.4          56             0.046              5719.39                     120.362
6     12     0.4          56             0.05              9635.33                     156.223
6     12     0.4          56             0.054              13743.8                     186.58
6     12     0.4          56             0.058              17426.7                     210.097
6     12     0.4          56             0.062              19620.2                     222.928
6     12     0.4          56             0.066              21332.5                     232.452
6     12     0.4          56             0.07              23244.8                     242.648
6     12     0.4          56             0.074              24926.7                     251.273
6     12     0.4          56             0.078              25643.5                     254.86
6     12     0.4          56             0.082              25582.8                     254.558
6     12     0.4          56             0.086              24886.2                     251.068
6     12     0.4          56             0.09              24177                     247.465
6     12     0.4          56             0.094              22864.9                     240.657
6     12     0.4          56             0.098              21722.5                     234.568
6     12     0.4          56             0.102              20223                     226.327
6     12     0.4          56             0.106              19017.4                     219.477
6     12     0.4          56             0.11              17262                     209.102
6     12     0.4          56             0.114              16494.5                     204.401
6     12     0.4          56             0.118              15093.8                     195.53
6     12     0.4          56             0.122              13992                     188.258
6     12     0.4          56             0.126              12497.6                     177.92
6     12     0.4          56             0.13              11570.5                     171.194
6     12     0.4          56             0.134              9815.17                     157.675
6     12     0.4          56             0.138              8943.83                     150.513
6     12     0.4          56             0.142              8214.34                     144.245
6     12     0.4          56             0.146              6996                     133.118
6     12     0.4          56             0.15              6165.19                     124.964
6     12     0.4          56             0.154              5369.85                     116.626
6     12     0.4          56             0.158              4592.23                     107.851
6     12     0.4          56             0.162              3657.57                     96.2519
6     12     0.4          56             0.166              2971.15                     86.7511
6     12     0.4          56             0.17              2434.16                     78.5213
6     12     0.4          56             0.174              1945.3                     70.1951
6     12     0.4          56             0.178              1524.83                     62.1476
6     12     0.4          56             0.182              1089.17                     52.5243
6     12     0.4          56             0.186              843.471                     46.2219
6     12     0.4          56             0.19              615.506                     39.4847
6     12     0.4          56             0.194              554.715                     37.4842
6     12     0.4          56             0.198              559.781                     37.6549
6     12     0.4          56             0.202              580.045                     38.3304
6     12     0.4          56             0.206              595.242                     38.8293
6     12     0.4          56             0.21              633.236                     40.0494
6     12     0.4          56             0.214              625.638                     39.8084
6     12     0.4          56             0.218              701.626                     42.1566
6     12     0.4          56             0.222              643.368                     40.3685
6     12     0.4          56             0.226              714.291                     42.5354
6     12     0.4          56             0.23              896.663                     47.6571
6     12     0.4          56             0.234              808.01                     45.2399
6     12     0.4          56             0.238              752.285                     43.652
6     12     0.4          56             0.242              916.926                     48.1926
6     12     0.4          56             0.246              904.262                     47.8586
6     12     0.4          56             0.25              1056.24                     51.7242
6     12     0.4          56             0.254              1061.3                     51.8481
6     12     0.4          56             0.258              1066.37                     51.9717
6     12     0.4          56             0.262              1048.64                     51.5378
6     12     0.4          56             0.266              1220.88                     55.6096
6     12     0.4          56             0.27              1365.26                     58.8058
6     12     0.4          56             0.274              1327.26                     57.9818
6     12     0.4          56             0.278              1438.71                     60.3671
6     12     0.4          56             0.282              1547.63                     62.6104
6     12     0.4          56             0.286              1795.86                     67.4449
6     12     0.4          56             0.29              1854.12                     68.5301
6     12     0.4          56             0.294              2006.09                     71.2834
6     12     0.4          56             0.298              2274.59                     75.9039
6     12     0.4          56             0.302              2543.08                     80.2588
6     12     0.4          56             0.306              2667.19                     82.194
6     12     0.4          56             0.31              2940.75                     86.3062
6     12     0.4          56             0.314              3221.91                     90.3378
6     12     0.4          56             0.318              3670.24                     96.4184
6     12     0.4          56             0.322              3921                     99.6578
6     12     0.4          56             0.326              4161.63                     102.67
6     12     0.4          56             0.33              4807.53                     110.35
6     12     0.4          56             0.334              4761.94                     109.826
6     12     0.4          56             0.338              5509.16                     118.129
6     12     0.4          56             0.342              4090.71                     101.792
6     12     0.4          56             0.346              486.326                     35.0975
6     12     0.4          56             0.35              0                     0
6     12     0.4          56             0.354              0                     0
6     12     0.4          56             0.358              0                     0
6     12     0.4          56             0.362              0                     0
6     12     0.4          56             0.366              0                     0
6     12     0.4          56             0.37              0                     0
6     12     0.4          56             0.374              0                     0
6     12     0.4          56             0.378              0                     0
6     12     0.4          56             0.382              0                     0
6     12     0.4          56             0.386              0                     0
6     12     0.4          56             0.39              0                     0
6     12     0.4          56             0.394              0                     0
*******************************************************************************************************
 Average angle 55.9608 +- 0.120396 deg 
 Average E' 0.277466 +- 0.000596949 GeV 
