*******************************************************************************************************
Z     A     E(GeV)     Theta(deg)     Energy Loss(GeV)     Sigma(#mub/sr/GeV)     ERROR     Citation     
*******************************************************************************************************
6     12     1          32.6667             0.005              0                     0
6     12     1          32.6667             0.015              0                     0
6     12     1          32.6667             0.025              0                     0
6     12     1          32.6667             0.035              0                     0
6     12     1          32.6667             0.045              0                     0
6     12     1          32.6667             0.055              4.23095                     2.99174
6     12     1          32.6667             0.065              217.894                     21.4698
6     12     1          32.6667             0.075              947.734                     44.7762
6     12     1          32.6667             0.085              2075.28                     66.2587
6     12     1          32.6667             0.095              3202.83                     82.3136
6     12     1          32.6667             0.105              4658.28                     99.2698
6     12     1          32.6667             0.115              6549.52                     117.709
6     12     1          32.6667             0.125              7977.47                     129.908
6     12     1          32.6667             0.135              9729.08                     143.463
6     12     1          32.6667             0.145              10869.3                     151.637
6     12     1          32.6667             0.155              11965.1                     159.097
6     12     1          32.6667             0.165              12028.6                     159.519
6     12     1          32.6667             0.175              11343.2                     154.907
6     12     1          32.6667             0.185              10492.8                     148.987
6     12     1          32.6667             0.195              9517.53                     141.895
6     12     1          32.6667             0.205              8561.34                     134.578
6     12     1          32.6667             0.215              7469.75                     125.706
6     12     1          32.6667             0.225              6663.75                     118.731
6     12     1          32.6667             0.235              5728.71                     110.086
6     12     1          32.6667             0.245              5115.22                     104.025
6     12     1          32.6667             0.255              4412.89                     96.6197
6     12     1          32.6667             0.265              3953.83                     91.4562
6     12     1          32.6667             0.275              3482.08                     85.8269
6     12     1          32.6667             0.285              3346.69                     84.1418
6     12     1          32.6667             0.295              3084.37                     80.7769
6     12     1          32.6667             0.305              2900.32                     78.3298
6     12     1          32.6667             0.315              2841.09                     77.5258
6     12     1          32.6667             0.325              2720.5                     75.8628
6     12     1          32.6667             0.335              2910.9                     78.4725
6     12     1          32.6667             0.345              3023.02                     79.9695
6     12     1          32.6667             0.355              3524.39                     86.3467
6     12     1          32.6667             0.365              3628.04                     87.6073
6     12     1          32.6667             0.375              4142.1                     93.6084
6     12     1          32.6667             0.385              4283.84                     95.1965
6     12     1          32.6667             0.395              4554.62                     98.1591
6     12     1          32.6667             0.405              5017.91                     103.03
6     12     1          32.6667             0.415              5149.07                     104.368
6     12     1          32.6667             0.425              5142.73                     104.304
6     12     1          32.6667             0.435              5614.48                     108.983
6     12     1          32.6667             0.445              5301.39                     105.901
6     12     1          32.6667             0.455              5421.97                     107.098
6     12     1          32.6667             0.465              5318.31                     106.07
6     12     1          32.6667             0.475              4990.41                     102.748
6     12     1          32.6667             0.485              5034.84                     103.204
6     12     1          32.6667             0.495              4683.67                     99.5399
6     12     1          32.6667             0.505              4569.43                     98.3185
6     12     1          32.6667             0.515              4309.23                     95.4781
6     12     1          32.6667             0.525              4008.83                     92.0901
6     12     1          32.6667             0.535              3977.1                     91.7249
6     12     1          32.6667             0.545              3699.97                     88.4715
6     12     1          32.6667             0.555              3414.38                     84.9885
6     12     1          32.6667             0.565              3585.73                     87.095
6     12     1          32.6667             0.575              3228.22                     82.6391
6     12     1          32.6667             0.585              3082.25                     80.7492
6     12     1          32.6667             0.595              2995.52                     79.6049
6     12     1          32.6667             0.605              2803.01                     77.0045
6     12     1          32.6667             0.615              2557.61                     73.5566
6     12     1          32.6667             0.625              2739.54                     76.1278
6     12     1          32.6667             0.635              2430.68                     71.7081
6     12     1          32.6667             0.645              2616.85                     74.4035
6     12     1          32.6667             0.655              2528                     73.1295
6     12     1          32.6667             0.665              2547.03                     73.4043
6     12     1          32.6667             0.675              2578.77                     73.8602
6     12     1          32.6667             0.685              2411.64                     71.4267
6     12     1          32.6667             0.695              2515.3                     72.9456
6     12     1          32.6667             0.705              2549.15                     73.4348
6     12     1          32.6667             0.715              2587.23                     73.9812
6     12     1          32.6667             0.725              2703.58                     75.6265
6     12     1          32.6667             0.735              2781.85                     76.7134
6     12     1          32.6667             0.745              2893.97                     78.2441
6     12     1          32.6667             0.755              2963.78                     79.1822
6     12     1          32.6667             0.765              2896.09                     78.2727
6     12     1          32.6667             0.775              2889.74                     78.1869
6     12     1          32.6667             0.785              3067.44                     80.555
6     12     1          32.6667             0.795              3029.36                     80.0534
6     12     1          32.6667             0.805              3164.75                     81.8228
6     12     1          32.6667             0.815              3198.6                     82.2592
6     12     1          32.6667             0.825              3327.65                     83.9021
6     12     1          32.6667             0.835              3285.34                     83.367
6     12     1          32.6667             0.845              3257.84                     83.0173
6     12     1          32.6667             0.855              3188.02                     82.123
6     12     1          32.6667             0.865              3276.87                     83.2596
6     12     1          32.6667             0.875              3264.18                     83.0982
6     12     1          32.6667             0.885              3357.26                     84.2746
6     12     1          32.6667             0.895              3314.95                     83.7419
6     12     1          32.6667             0.905              3433.42                     85.2251
6     12     1          32.6667             0.915              3541.31                     86.5538
6     12     1          32.6667             0.925              3488.42                     85.9051
6     12     1          32.6667             0.935              2233.94                     68.7449
6     12     1          32.6667             0.945              63.4643                     11.5869
6     12     1          32.6667             0.955              0                     0
6     12     1          32.6667             0.965              0                     0
6     12     1          32.6667             0.975              0                     0
6     12     1          32.6667             0.985              0                     0
*******************************************************************************************************
 Average angle 32.6039 +- 0.0773399 deg 
 Average E' 0.572063 +- 0.00135699 GeV 
