*******************************************************************************************************
Z     A     E(GeV)     Theta(deg)     Energy Loss(GeV)     Sigma(#mub/sr/GeV)     ERROR     Citation     
*******************************************************************************************************
6     12     0.16          144             0.0008              51.0543                     14.1599
6     12     0.16          144             0.0024              47.1271                     13.6044
6     12     0.16          144             0.004              51.0543                     14.1599
6     12     0.16          144             0.0056              39.2726                     12.4191
6     12     0.16          144             0.0072              90.3269                     18.8345
6     12     0.16          144             0.0088              51.0543                     14.1599
6     12     0.16          144             0.0104              62.8361                     15.709
6     12     0.16          144             0.012              82.4724                     17.9969
6     12     0.16          144             0.0136              94.2541                     19.2395
6     12     0.16          144             0.0152              102.109                     20.0252
6     12     0.16          144             0.0168              70.6906                     16.6619
6     12     0.16          144             0.0184              86.3996                     18.4205
6     12     0.16          144             0.02              94.2541                     19.2395
6     12     0.16          144             0.0216              82.4724                     17.9969
6     12     0.16          144             0.0232              149.236                     24.2092
6     12     0.16          144             0.0248              102.109                     20.0252
6     12     0.16          144             0.0264              168.872                     25.7527
6     12     0.16          144             0.028              141.381                     23.5635
6     12     0.16          144             0.0296              270.981                     32.6222
6     12     0.16          144             0.0312              632.288                     49.8313
6     12     0.16          144             0.0328              973.959                     61.8465
6     12     0.16          144             0.0344              1441.3                     75.2354
6     12     0.16          144             0.036              2112.86                     91.092
6     12     0.16          144             0.0376              2309.23                     95.2309
6     12     0.16          144             0.0392              3027.91                     109.048
6     12     0.16          144             0.0408              3903.69                     123.818
6     12     0.16          144             0.0424              4331.76                     130.43
6     12     0.16          144             0.044              5144.7                     142.143
6     12     0.16          144             0.0456              5604.19                     148.355
6     12     0.16          144             0.0472              6150.08                     155.412
6     12     0.16          144             0.0488              6754.88                     162.875
6     12     0.16          144             0.0504              7438.22                     170.915
6     12     0.16          144             0.052              7964.47                     176.857
6     12     0.16          144             0.0536              8549.63                     183.239
6     12     0.16          144             0.0552              8832.4                     186.245
6     12     0.16          144             0.0568              9013.05                     188.14
6     12     0.16          144             0.0584              9429.34                     192.435
6     12     0.16          144             0.06              9130.87                     189.365
6     12     0.16          144             0.0616              9087.67                     188.917
6     12     0.16          144             0.0632              9284.03                     190.947
6     12     0.16          144             0.0648              9115.16                     189.202
6     12     0.16          144             0.0664              8832.4                     186.245
6     12     0.16          144             0.068              8600.69                     183.785
6     12     0.16          144             0.0696              8742.07                     185.29
6     12     0.16          144             0.0712              8573.2                     183.492
6     12     0.16          144             0.0728              8113.71                     178.507
6     12     0.16          144             0.0744              7736.69                     174.31
6     12     0.16          144             0.076              8011.6                     177.38
6     12     0.16          144             0.0776              7673.86                     173.601
6     12     0.16          144             0.0792              7799.53                     175.016
6     12     0.16          144             0.0808              7414.66                     170.644
6     12     0.16          144             0.0824              7025.86                     166.109
6     12     0.16          144             0.084              6963.02                     165.365
6     12     0.16          144             0.0856              6723.46                     162.495
6     12     0.16          144             0.0872              6487.83                     159.623
6     12     0.16          144             0.0888              6232.55                     156.451
6     12     0.16          144             0.0904              6197.21                     156.006
6     12     0.16          144             0.092              5914.45                     152.406
6     12     0.16          144             0.0936              5824.12                     151.238
6     12     0.16          144             0.0952              5521.72                     147.259
6     12     0.16          144             0.0968              5195.76                     142.846
6     12     0.16          144             0.0984              5195.76                     142.846
6     12     0.16          144             0.1              4975.83                     139.79
6     12     0.16          144             0.1016              4708.78                     135.987
6     12     0.16          144             0.1032              4465.29                     132.425
6     12     0.16          144             0.1048              4064.71                     126.345
6     12     0.16          144             0.1064              3813.36                     122.377
6     12     0.16          144             0.108              3683.77                     120.279
6     12     0.16          144             0.1096              3381.37                     115.237
6     12     0.16          144             0.1112              3051.48                     109.471
6     12     0.16          144             0.1128              2788.35                     104.645
6     12     0.16          144             0.1144              2529.15                     99.6626
6     12     0.16          144             0.116              1998.97                     88.6029
6     12     0.16          144             0.1176              1975.41                     88.0791
6     12     0.16          144             0.1192              1398.1                     74.0993
6     12     0.16          144             0.1208              1205.67                     68.8111
6     12     0.16          144             0.1224              777.597                     55.2614
6     12     0.16          144             0.124              373.089                     38.2781
6     12     0.16          144             0.1256              70.6906                     16.6619
6     12     0.16          144             0.1272              0                     0
6     12     0.16          144             0.1288              0                     0
6     12     0.16          144             0.1304              0                     0
6     12     0.16          144             0.132              0                     0
6     12     0.16          144             0.1336              0                     0
6     12     0.16          144             0.1352              0                     0
6     12     0.16          144             0.1368              0                     0
6     12     0.16          144             0.1384              0                     0
6     12     0.16          144             0.14              0                     0
6     12     0.16          144             0.1416              0                     0
6     12     0.16          144             0.1432              0                     0
6     12     0.16          144             0.1448              0                     0
6     12     0.16          144             0.1464              0                     0
6     12     0.16          144             0.148              0                     0
6     12     0.16          144             0.1496              0                     0
6     12     0.16          144             0.1512              0                     0
6     12     0.16          144             0.1528              0                     0
6     12     0.16          144             0.1544              0                     0
6     12     0.16          144             0.156              0                     0
6     12     0.16          144             0.1576              0                     0
*******************************************************************************************************
 Average angle 143.971 +- 0.499275 deg 
 Average E' 0.0868946 +- 0.000301342 GeV 
