*******************************************************************************************************
Z     A     E(GeV)     Theta(deg)     Energy Loss(GeV)     Sigma(#mub/sr/GeV)     ERROR     Citation     
*******************************************************************************************************
6     12     0.56          82.8             0.0028              0                     0
6     12     0.56          82.8             0.0084              0                     0
6     12     0.56          82.8             0.014              0                     0
6     12     0.56          82.8             0.0196              0                     0
6     12     0.56          82.8             0.0252              0                     0
6     12     0.56          82.8             0.0308              0                     0
6     12     0.56          82.8             0.0364              0                     0
6     12     0.56          82.8             0.042              0                     0
6     12     0.56          82.8             0.0476              0                     0
6     12     0.56          82.8             0.0532              0                     0
6     12     0.56          82.8             0.0588              0                     0
6     12     0.56          82.8             0.0644              0                     0
6     12     0.56          82.8             0.07              0                     0
6     12     0.56          82.8             0.0756              0                     0
6     12     0.56          82.8             0.0812              0                     0
6     12     0.56          82.8             0.0868              0                     0
6     12     0.56          82.8             0.0924              1.72738                     1.72738
6     12     0.56          82.8             0.098              0                     0
6     12     0.56          82.8             0.1036              1.72738                     1.72738
6     12     0.56          82.8             0.1092              5.18213                     2.9919
6     12     0.56          82.8             0.1148              34.5475                     7.72506
6     12     0.56          82.8             0.1204              58.7308                     10.0722
6     12     0.56          82.8             0.126              103.643                     13.3802
6     12     0.56          82.8             0.1316              158.919                     16.5684
6     12     0.56          82.8             0.1372              253.924                     20.9433
6     12     0.56          82.8             0.1428              291.927                     22.4559
6     12     0.56          82.8             0.1484              355.839                     24.7925
6     12     0.56          82.8             0.154              440.481                     27.584
6     12     0.56          82.8             0.1596              511.303                     29.7189
6     12     0.56          82.8             0.1652              580.398                     31.6633
6     12     0.56          82.8             0.1708              742.772                     35.8196
6     12     0.56          82.8             0.1764              808.412                     37.3689
6     12     0.56          82.8             0.182              891.326                     39.2384
6     12     0.56          82.8             0.1876              943.147                     40.363
6     12     0.56          82.8             0.1932              1022.61                     42.0289
6     12     0.56          82.8             0.1988              1148.71                     44.5449
6     12     0.56          82.8             0.2044              1178.07                     45.1107
6     12     0.56          82.8             0.21              1210.89                     45.7347
6     12     0.56          82.8             0.2156              1212.62                     45.7673
6     12     0.56          82.8             0.2212              1152.16                     44.6118
6     12     0.56          82.8             0.2268              1108.98                     43.7678
6     12     0.56          82.8             0.2324              1103.79                     43.6654
6     12     0.56          82.8             0.238              1045.06                     42.4878
6     12     0.56          82.8             0.2436              991.514                     41.385
6     12     0.56          82.8             0.2492              988.059                     41.3128
6     12     0.56          82.8             0.2548              924.146                     39.9543
6     12     0.56          82.8             0.2604              861.961                     38.5867
6     12     0.56          82.8             0.266              891.326                     39.2384
6     12     0.56          82.8             0.2716              827.413                     37.8055
6     12     0.56          82.8             0.2772              813.594                     37.4884
6     12     0.56          82.8             0.2828              715.134                     35.1469
6     12     0.56          82.8             0.2884              694.405                     34.6338
6     12     0.56          82.8             0.294              680.586                     34.2874
6     12     0.56          82.8             0.2996              656.403                     33.6728
6     12     0.56          82.8             0.3052              723.771                     35.3585
6     12     0.56          82.8             0.3108              632.22                     33.0467
6     12     0.56          82.8             0.3164              628.765                     32.9562
6     12     0.56          82.8             0.322              630.492                     33.0015
6     12     0.56          82.8             0.3276              583.853                     31.7574
6     12     0.56          82.8             0.3332              652.948                     33.584
6     12     0.56          82.8             0.3388              644.311                     33.3612
6     12     0.56          82.8             0.3444              602.854                     32.27
6     12     0.56          82.8             0.35              666.767                     33.9376
6     12     0.56          82.8             0.3556              673.677                     34.1129
6     12     0.56          82.8             0.3612              794.593                     37.0481
6     12     0.56          82.8             0.3668              784.229                     36.8057
6     12     0.56          82.8             0.3724              861.961                     38.5867
6     12     0.56          82.8             0.378              861.961                     38.5867
6     12     0.56          82.8             0.3836              977.695                     41.0956
6     12     0.56          82.8             0.3892              1060.61                     42.8027
6     12     0.56          82.8             0.3948              1110.7                     43.8018
6     12     0.56          82.8             0.4004              1138.34                     44.3435
6     12     0.56          82.8             0.406              1260.98                     46.6711
6     12     0.56          82.8             0.4116              1331.81                     47.9639
6     12     0.56          82.8             0.4172              1442.36                     49.9149
6     12     0.56          82.8             0.4228              1451                     50.0641
6     12     0.56          82.8             0.4284              1480.36                     50.5682
6     12     0.56          82.8             0.434              1457.91                     50.1832
6     12     0.56          82.8             0.4396              1381.9                     48.8576
6     12     0.56          82.8             0.4452              1324.9                     47.8393
6     12     0.56          82.8             0.4508              1492.45                     50.7743
6     12     0.56          82.8             0.4564              1416.45                     49.4645
6     12     0.56          82.8             0.462              1471.72                     50.4204
6     12     0.56          82.8             0.4676              1400.9                     49.1923
6     12     0.56          82.8             0.4732              1338.72                     48.0881
6     12     0.56          82.8             0.4788              1252.35                     46.511
6     12     0.56          82.8             0.4844              1260.98                     46.6711
6     12     0.56          82.8             0.49              1279.99                     47.0214
6     12     0.56          82.8             0.4956              1133.16                     44.2424
6     12     0.56          82.8             0.5012              1165.98                     44.8785
6     12     0.56          82.8             0.5068              1039.88                     42.3824
6     12     0.56          82.8             0.5124              1001.88                     41.6007
6     12     0.56          82.8             0.518              969.058                     40.9137
6     12     0.56          82.8             0.5236              960.421                     40.7309
6     12     0.56          82.8             0.5292              825.686                     37.766
6     12     0.56          82.8             0.5348              782.501                     36.7651
6     12     0.56          82.8             0.5404              271.198                     21.644
6     12     0.56          82.8             0.546              0                     0
6     12     0.56          82.8             0.5516              0                     0
*******************************************************************************************************
 Average angle 82.7687 +- 0.412234 deg 
 Average E' 0.204632 +- 0.00101918 GeV 
