*******************************************************************************************************
Z     A     E(GeV)     Theta(deg)     Energy Loss(GeV)     Sigma(#mub/sr/GeV)     ERROR     Citation     
*******************************************************************************************************
6     12     0.4          133.5             0.002              0                     0
6     12     0.4          133.5             0.006              0                     0
6     12     0.4          133.5             0.01              0                     0
6     12     0.4          133.5             0.014              0                     0
6     12     0.4          133.5             0.018              0                     0
6     12     0.4          133.5             0.022              0                     0
6     12     0.4          133.5             0.026              0                     0
6     12     0.4          133.5             0.03              0                     0
6     12     0.4          133.5             0.034              0                     0
6     12     0.4          133.5             0.038              0                     0
6     12     0.4          133.5             0.042              0                     0
6     12     0.4          133.5             0.046              0                     0
6     12     0.4          133.5             0.05              0                     0
6     12     0.4          133.5             0.054              0                     0
6     12     0.4          133.5             0.058              0                     0
6     12     0.4          133.5             0.062              0                     0
6     12     0.4          133.5             0.066              0                     0
6     12     0.4          133.5             0.07              0                     0
6     12     0.4          133.5             0.074              0                     0
6     12     0.4          133.5             0.078              0                     0
6     12     0.4          133.5             0.082              0                     0
6     12     0.4          133.5             0.086              0                     0
6     12     0.4          133.5             0.09              0                     0
6     12     0.4          133.5             0.094              2.89493                     2.89493
6     12     0.4          133.5             0.098              11.5797                     5.78986
6     12     0.4          133.5             0.102              5.78986                     4.09405
6     12     0.4          133.5             0.106              26.0544                     8.68479
6     12     0.4          133.5             0.11              31.8442                     9.60139
6     12     0.4          133.5             0.114              86.8479                     15.8562
6     12     0.4          133.5             0.118              83.9529                     15.5897
6     12     0.4          133.5             0.122              118.692                     18.5366
6     12     0.4          133.5             0.126              150.536                     20.8756
6     12     0.4          133.5             0.13              202.645                     24.2207
6     12     0.4          133.5             0.134              231.594                     25.893
6     12     0.4          133.5             0.138              251.859                     27.0021
6     12     0.4          133.5             0.142              301.073                     29.5226
6     12     0.4          133.5             0.146              390.815                     33.636
6     12     0.4          133.5             0.15              483.453                     37.4107
6     12     0.4          133.5             0.154              558.721                     40.2176
6     12     0.4          133.5             0.158              526.877                     39.0547
6     12     0.4          133.5             0.162              688.993                     44.6608
6     12     0.4          133.5             0.166              726.627                     45.8643
6     12     0.4          133.5             0.17              822.16                     48.7862
6     12     0.4          133.5             0.174              891.638                     50.8058
6     12     0.4          133.5             0.178              874.269                     50.3085
6     12     0.4          133.5             0.182              1021.91                     54.3908
6     12     0.4          133.5             0.186              990.066                     53.5366
6     12     0.4          133.5             0.19              1007.44                     54.0042
6     12     0.4          133.5             0.194              1126.13                     57.0969
6     12     0.4          133.5             0.198              995.856                     53.6929
6     12     0.4          133.5             0.202              1039.28                     54.8511
6     12     0.4          133.5             0.206              1079.81                     55.9104
6     12     0.4          133.5             0.21              987.171                     53.4583
6     12     0.4          133.5             0.214              995.856                     53.6929
6     12     0.4          133.5             0.218              888.743                     50.7233
6     12     0.4          133.5             0.222              804.79                     48.2681
6     12     0.4          133.5             0.226              816.37                     48.6141
6     12     0.4          133.5             0.23              801.895                     48.1812
6     12     0.4          133.5             0.234              709.258                     45.3128
6     12     0.4          133.5             0.238              633.989                     42.841
6     12     0.4          133.5             0.242              584.776                     41.1447
6     12     0.4          133.5             0.246              657.149                     43.6165
6     12     0.4          133.5             0.25              480.558                     37.2986
6     12     0.4          133.5             0.254              521.087                     38.8395
6     12     0.4          133.5             0.258              408.185                     34.3754
6     12     0.4          133.5             0.262              396.605                     33.8843
6     12     0.4          133.5             0.266              344.497                     31.5799
6     12     0.4          133.5             0.27              344.497                     31.5799
6     12     0.4          133.5             0.274              356.076                     32.1063
6     12     0.4          133.5             0.278              286.598                     28.8042
6     12     0.4          133.5             0.282              283.703                     28.6583
6     12     0.4          133.5             0.286              272.123                     28.0674
6     12     0.4          133.5             0.29              318.442                     30.3623
6     12     0.4          133.5             0.294              266.333                     27.7672
6     12     0.4          133.5             0.298              347.391                     31.7124
6     12     0.4          133.5             0.302              350.286                     31.8442
6     12     0.4          133.5             0.306              327.127                     30.7735
6     12     0.4          133.5             0.31              396.605                     33.8843
6     12     0.4          133.5             0.314              399.5                     34.0077
6     12     0.4          133.5             0.318              457.399                     36.3887
6     12     0.4          133.5             0.322              416.87                     34.7391
6     12     0.4          133.5             0.326              567.406                     40.529
6     12     0.4          133.5             0.33              512.402                     38.5145
6     12     0.4          133.5             0.334              550.037                     39.9038
6     12     0.4          133.5             0.338              697.678                     44.9414
6     12     0.4          133.5             0.342              735.312                     46.1376
6     12     0.4          133.5             0.346              911.903                     51.3799
6     12     0.4          133.5             0.35              1004.54                     53.9266
6     12     0.4          133.5             0.354              1021.91                     54.3908
6     12     0.4          133.5             0.358              1239.03                     59.8908
6     12     0.4          133.5             0.362              1395.36                     63.5567
6     12     0.4          133.5             0.366              1548.79                     66.9599
6     12     0.4          133.5             0.37              1716.69                     70.4961
6     12     0.4          133.5             0.374              1803.54                     72.2573
6     12     0.4          133.5             0.378              1974.34                     75.6014
6     12     0.4          133.5             0.382              1913.55                     74.4284
6     12     0.4          133.5             0.386              631.095                     42.7431
6     12     0.4          133.5             0.39              0                     0
6     12     0.4          133.5             0.394              0                     0
*******************************************************************************************************
 Average angle 133.47 +- 1.03862 deg 
 Average E' 0.128923 +- 0.00100324 GeV 
