*******************************************************************************************************
Z     A     E(GeV)     Theta(deg)     Energy Loss(GeV)     Sigma(#mub/sr/GeV)     ERROR     Citation     
*******************************************************************************************************
6     12     0.2          156.667             0.001              53.6604                     18.9718
6     12     0.2          156.667             0.003              53.6604                     18.9718
6     12     0.2          156.667             0.005              80.4907                     23.2357
6     12     0.2          156.667             0.007              46.9529                     17.7465
6     12     0.2          156.667             0.009              67.0756                     21.2112
6     12     0.2          156.667             0.011              73.7831                     22.2464
6     12     0.2          156.667             0.013              67.0756                     21.2112
6     12     0.2          156.667             0.015              120.736                     28.4577
6     12     0.2          156.667             0.017              100.613                     25.9783
6     12     0.2          156.667             0.019              114.028                     27.656
6     12     0.2          156.667             0.021              181.104                     34.8535
6     12     0.2          156.667             0.023              154.274                     32.1683
6     12     0.2          156.667             0.025              140.859                     30.7379
6     12     0.2          156.667             0.027              160.981                     32.8602
6     12     0.2          156.667             0.029              100.613                     25.9783
6     12     0.2          156.667             0.031              174.396                     34.202
6     12     0.2          156.667             0.033              181.104                     34.8535
6     12     0.2          156.667             0.035              181.104                     34.8535
6     12     0.2          156.667             0.037              234.764                     39.6824
6     12     0.2          156.667             0.039              368.916                     49.7446
6     12     0.2          156.667             0.041              550.02                     60.7395
6     12     0.2          156.667             0.043              724.416                     69.707
6     12     0.2          156.667             0.045              1187.24                     89.2382
6     12     0.2          156.667             0.047              1395.17                     96.7377
6     12     0.2          156.667             0.049              1770.79                     108.985
6     12     0.2          156.667             0.051              2032.39                     116.758
6     12     0.2          156.667             0.053              2461.67                     128.498
6     12     0.2          156.667             0.055              3051.94                     143.077
6     12     0.2          156.667             0.057              3279.99                     148.326
6     12     0.2          156.667             0.059              3286.7                     148.478
6     12     0.2          156.667             0.061              3440.98                     151.923
6     12     0.2          156.667             0.063              3796.48                     159.578
6     12     0.2          156.667             0.065              4138.56                     166.612
6     12     0.2          156.667             0.067              4413.57                     172.059
6     12     0.2          156.667             0.069              4527.6                     174.267
6     12     0.2          156.667             0.071              4655.04                     176.703
6     12     0.2          156.667             0.073              4614.8                     175.938
6     12     0.2          156.667             0.075              4514.19                     174.009
6     12     0.2          156.667             0.077              4829.44                     179.983
6     12     0.2          156.667             0.079              4641.63                     176.448
6     12     0.2          156.667             0.081              4789.19                     179.231
6     12     0.2          156.667             0.083              4312.96                     170.086
6     12     0.2          156.667             0.085              4406.86                     171.928
6     12     0.2          156.667             0.087              4648.34                     176.576
6     12     0.2          156.667             0.089              4306.25                     169.954
6     12     0.2          156.667             0.091              4393.45                     171.666
6     12     0.2          156.667             0.093              4239.18                     168.625
6     12     0.2          156.667             0.095              4064.78                     165.12
6     12     0.2          156.667             0.097              3843.43                     160.562
6     12     0.2          156.667             0.099              3702.57                     157.592
6     12     0.2          156.667             0.101              3521.47                     153.689
6     12     0.2          156.667             0.103              3568.42                     154.711
6     12     0.2          156.667             0.105              3253.16                     147.719
6     12     0.2          156.667             0.107              3112.31                     144.485
6     12     0.2          156.667             0.109              2837.3                     137.954
6     12     0.2          156.667             0.111              2656.19                     133.479
6     12     0.2          156.667             0.113              2468.38                     128.673
6     12     0.2          156.667             0.115              2528.75                     130.237
6     12     0.2          156.667             0.117              2555.58                     130.926
6     12     0.2          156.667             0.119              2179.96                     120.922
6     12     0.2          156.667             0.121              2099.46                     118.669
6     12     0.2          156.667             0.123              1985.44                     115.401
6     12     0.2          156.667             0.125              1603.11                     103.696
6     12     0.2          156.667             0.127              1650.06                     105.204
6     12     0.2          156.667             0.129              1435.42                     98.1231
6     12     0.2          156.667             0.131              1234.19                     90.9857
6     12     0.2          156.667             0.133              1066.5                     84.5791
6     12     0.2          156.667             0.135              952.473                     79.9298
6     12     0.2          156.667             0.137              945.765                     79.6478
6     12     0.2          156.667             0.139              804.907                     73.4776
6     12     0.2          156.667             0.141              529.897                     59.6181
6     12     0.2          156.667             0.143              563.435                     61.4758
6     12     0.2          156.667             0.145              415.868                     52.8153
6     12     0.2          156.667             0.147              241.472                     40.2453
6     12     0.2          156.667             0.149              140.859                     30.7379
6     12     0.2          156.667             0.151              100.613                     25.9783
6     12     0.2          156.667             0.153              67.0756                     21.2112
6     12     0.2          156.667             0.155              60.368                     20.1227
6     12     0.2          156.667             0.157              120.736                     28.4577
6     12     0.2          156.667             0.159              73.7831                     22.2464
6     12     0.2          156.667             0.161              73.7831                     22.2464
6     12     0.2          156.667             0.163              73.7831                     22.2464
6     12     0.2          156.667             0.165              73.7831                     22.2464
6     12     0.2          156.667             0.167              73.7831                     22.2464
6     12     0.2          156.667             0.169              73.7831                     22.2464
6     12     0.2          156.667             0.171              67.0756                     21.2112
6     12     0.2          156.667             0.173              53.6604                     18.9718
6     12     0.2          156.667             0.175              0                     0
6     12     0.2          156.667             0.177              0                     0
6     12     0.2          156.667             0.179              0                     0
6     12     0.2          156.667             0.181              0                     0
6     12     0.2          156.667             0.183              0                     0
6     12     0.2          156.667             0.185              0                     0
6     12     0.2          156.667             0.187              0                     0
6     12     0.2          156.667             0.189              0                     0
6     12     0.2          156.667             0.191              0                     0
6     12     0.2          156.667             0.193              0                     0
6     12     0.2          156.667             0.195              0                     0
6     12     0.2          156.667             0.197              0                     0
*******************************************************************************************************
 Average angle 156.622 +- 1.03244 deg 
 Average E' 0.113716 +- 0.000749606 GeV 
