*******************************************************************************************************
Z     A     E(GeV)     Theta(deg)     Energy Loss(GeV)     Sigma(#mub/sr/GeV)     ERROR     Citation     
*******************************************************************************************************
6     12     0.32          85             0.0016              11.7924                     5.27372
6     12     0.32          85             0.0048              25.9433                     7.8222
6     12     0.32          85             0.008              23.5848                     7.45817
6     12     0.32          85             0.0112              44.8111                     10.2804
6     12     0.32          85             0.0144              70.7544                     12.9179
6     12     0.32          85             0.0176              63.679                     12.255
6     12     0.32          85             0.0208              80.1884                     13.7522
6     12     0.32          85             0.024              75.4714                     13.3416
6     12     0.32          85             0.0272              89.6223                     14.5387
6     12     0.32          85             0.0304              108.49                     15.996
6     12     0.32          85             0.0336              136.792                     17.9617
6     12     0.32          85             0.0368              117.924                     16.677
6     12     0.32          85             0.04              158.018                     19.305
6     12     0.32          85             0.0432              306.603                     26.8908
6     12     0.32          85             0.0464              801.884                     43.4882
6     12     0.32          85             0.0496              1436.32                     58.2024
6     12     0.32          85             0.0528              2176.88                     71.6528
6     12     0.32          85             0.056              2952.82                     83.4516
6     12     0.32          85             0.0592              3547.16                     91.4653
6     12     0.32          85             0.0624              4299.51                     100.699
6     12     0.32          85             0.0656              4905.64                     107.563
6     12     0.32          85             0.0688              5320.73                     112.022
6     12     0.32          85             0.072              5945.73                     118.418
6     12     0.32          85             0.0752              6478.75                     123.612
6     12     0.32          85             0.0784              6754.69                     126.217
6     12     0.32          85             0.0816              7266.48                     130.912
6     12     0.32          85             0.0848              7448.08                     132.537
6     12     0.32          85             0.088              8129.69                     138.469
6     12     0.32          85             0.0912              8169.78                     138.81
6     12     0.32          85             0.0944              8023.55                     137.562
6     12     0.32          85             0.0976              7886.76                     136.385
6     12     0.32          85             0.1008              7735.82                     135.073
6     12     0.32          85             0.104              7358.46                     131.738
6     12     0.32          85             0.1072              7174.5                     130.08
6     12     0.32          85             0.1104              6962.24                     128.142
6     12     0.32          85             0.1136              6509.41                     123.904
6     12     0.32          85             0.1168              6417.43                     123.026
6     12     0.32          85             0.12              5999.98                     118.957
6     12     0.32          85             0.1232              5540.07                     114.307
6     12     0.32          85             0.1264              5415.07                     113.01
6     12     0.32          85             0.1296              5141.49                     110.119
6     12     0.32          85             0.1328              4681.59                     105.078
6     12     0.32          85             0.136              4339.61                     101.168
6     12     0.32          85             0.1392              3945.74                     96.4674
6     12     0.32          85             0.1424              3738.19                     93.896
6     12     0.32          85             0.1456              3252.35                     87.5819
6     12     0.32          85             0.1488              3007.06                     84.2146
6     12     0.32          85             0.152              2643.86                     78.9651
6     12     0.32          85             0.1552              2344.33                     74.3576
6     12     0.32          85             0.1584              2205.18                     72.1171
6     12     0.32          85             0.1616              1959.9                     67.9881
6     12     0.32          85             0.1648              1563.67                     60.728
6     12     0.32          85             0.168              1360.84                     56.6527
6     12     0.32          85             0.1712              1245.28                     54.1938
6     12     0.32          85             0.1744              1002.35                     48.6213
6     12     0.32          85             0.1776              808.959                     43.6797
6     12     0.32          85             0.1808              714.62                     41.0538
6     12     0.32          85             0.184              469.338                     33.2705
6     12     0.32          85             0.1872              410.376                     31.1105
6     12     0.32          85             0.1904              353.772                     28.8854
6     12     0.32          85             0.1936              290.093                     26.1568
6     12     0.32          85             0.1968              290.093                     26.1568
6     12     0.32          85             0.2              242.924                     23.936
6     12     0.32          85             0.2032              283.018                     25.8359
6     12     0.32          85             0.2064              242.924                     23.936
6     12     0.32          85             0.2096              278.301                     25.6197
6     12     0.32          85             0.2128              337.263                     28.2033
6     12     0.32          85             0.216              301.886                     26.6832
6     12     0.32          85             0.2192              367.923                     29.4574
6     12     0.32          85             0.2224              389.149                     30.2952
6     12     0.32          85             0.2256              323.112                     27.6053
6     12     0.32          85             0.2288              351.414                     28.7889
6     12     0.32          85             0.232              433.961                     31.992
6     12     0.32          85             0.2352              415.093                     31.2888
6     12     0.32          85             0.2384              497.64                     34.2589
6     12     0.32          85             0.2416              452.828                     32.6801
6     12     0.32          85             0.2448              507.073                     34.5821
6     12     0.32          85             0.248              476.413                     33.5203
6     12     0.32          85             0.2512              634.431                     38.682
6     12     0.32          85             0.2544              757.073                     42.2557
6     12     0.32          85             0.2576              658.016                     39.3944
6     12     0.32          85             0.2608              797.167                     43.3602
6     12     0.32          85             0.264              849.053                     44.749
6     12     0.32          85             0.2672              1030.66                     49.303
6     12     0.32          85             0.2704              1129.71                     51.6179
6     12     0.32          85             0.2736              1136.79                     51.7793
6     12     0.32          85             0.2768              1450.47                     58.4884
6     12     0.32          85             0.28              1580.18                     61.0478
6     12     0.32          85             0.2832              1773.58                     64.6757
6     12     0.32          85             0.2864              561.319                     36.3849
6     12     0.32          85             0.2896              0                     0
6     12     0.32          85             0.2928              0                     0
6     12     0.32          85             0.296              0                     0
6     12     0.32          85             0.2992              0                     0
6     12     0.32          85             0.3024              0                     0
6     12     0.32          85             0.3056              0                     0
6     12     0.32          85             0.3088              0                     0
6     12     0.32          85             0.312              0                     0
6     12     0.32          85             0.3152              0                     0
*******************************************************************************************************
 Average angle 84.9773 +- 0.280764 deg 
 Average E' 0.202401 +- 0.00066873 GeV 
