*******************************************************************************************************
Z     A     E(GeV)     Theta(deg)     Energy Loss(GeV)     Sigma(#mub/sr/GeV)     ERROR     Citation     
*******************************************************************************************************
6     12     0.48          148             0.0024              0                     0
6     12     0.48          148             0.0072              0                     0
6     12     0.48          148             0.012              0                     0
6     12     0.48          148             0.0168              0                     0
6     12     0.48          148             0.0216              0                     0
6     12     0.48          148             0.0264              0                     0
6     12     0.48          148             0.0312              0                     0
6     12     0.48          148             0.036              0                     0
6     12     0.48          148             0.0408              0                     0
6     12     0.48          148             0.0456              0                     0
6     12     0.48          148             0.0504              0                     0
6     12     0.48          148             0.0552              0                     0
6     12     0.48          148             0.06              0                     0
6     12     0.48          148             0.0648              0                     0
6     12     0.48          148             0.0696              0                     0
6     12     0.48          148             0.0744              0                     0
6     12     0.48          148             0.0792              0                     0
6     12     0.48          148             0.084              0                     0
6     12     0.48          148             0.0888              0                     0
6     12     0.48          148             0.0936              0                     0
6     12     0.48          148             0.0984              0                     0
6     12     0.48          148             0.1032              0                     0
6     12     0.48          148             0.108              0                     0
6     12     0.48          148             0.1128              0                     0
6     12     0.48          148             0.1176              0                     0
6     12     0.48          148             0.1224              0                     0
6     12     0.48          148             0.1272              0                     0
6     12     0.48          148             0.132              0                     0
6     12     0.48          148             0.1368              0                     0
6     12     0.48          148             0.1416              0                     0
6     12     0.48          148             0.1464              0                     0
6     12     0.48          148             0.1512              0                     0
6     12     0.48          148             0.156              0                     0
6     12     0.48          148             0.1608              7.14513                     5.05237
6     12     0.48          148             0.1656              7.14513                     5.05237
6     12     0.48          148             0.1704              14.2903                     7.14513
6     12     0.48          148             0.1752              25.0079                     9.45211
6     12     0.48          148             0.18              32.1531                     10.7177
6     12     0.48          148             0.1848              53.5884                     13.8365
6     12     0.48          148             0.1896              57.161                     14.2903
6     12     0.48          148             0.1944              85.7415                     17.5019
6     12     0.48          148             0.1992              96.4592                     18.5636
6     12     0.48          148             0.204              100.032                     18.9042
6     12     0.48          148             0.2088              182.201                     25.5132
6     12     0.48          148             0.2136              142.903                     22.5949
6     12     0.48          148             0.2184              214.354                     27.673
6     12     0.48          148             0.2232              210.781                     27.4414
6     12     0.48          148             0.228              250.079                     29.8902
6     12     0.48          148             0.2328              264.37                     30.7324
6     12     0.48          148             0.2376              260.797                     30.524
6     12     0.48          148             0.2424              296.523                     32.5476
6     12     0.48          148             0.2472              296.523                     32.5476
6     12     0.48          148             0.252              314.386                     33.5136
6     12     0.48          148             0.2568              325.103                     34.0801
6     12     0.48          148             0.2616              303.668                     32.9374
6     12     0.48          148             0.2664              292.95                     32.3509
6     12     0.48          148             0.2712              303.668                     32.9374
6     12     0.48          148             0.276              275.087                     31.3491
6     12     0.48          148             0.2808              271.515                     31.1449
6     12     0.48          148             0.2856              321.531                     33.8923
6     12     0.48          148             0.2904              342.966                     35.0038
6     12     0.48          148             0.2952              314.386                     33.5136
6     12     0.48          148             0.3              396.555                     37.6393
6     12     0.48          148             0.3048              314.386                     33.5136
6     12     0.48          148             0.3096              357.256                     35.7256
6     12     0.48          148             0.3144              350.111                     35.3666
6     12     0.48          148             0.3192              300.095                     32.7431
6     12     0.48          148             0.324              310.813                     33.3227
6     12     0.48          148             0.3288              314.386                     33.5136
6     12     0.48          148             0.3336              292.95                     32.3509
6     12     0.48          148             0.3384              371.547                     36.4331
6     12     0.48          148             0.3432              275.087                     31.3491
6     12     0.48          148             0.348              260.797                     30.524
6     12     0.48          148             0.3528              375.119                     36.6079
6     12     0.48          148             0.3576              310.813                     33.3227
6     12     0.48          148             0.3624              385.837                     37.1272
6     12     0.48          148             0.3672              328.676                     34.2668
6     12     0.48          148             0.372              375.119                     36.6079
6     12     0.48          148             0.3768              400.127                     37.8085
6     12     0.48          148             0.3816              453.716                     40.2607
6     12     0.48          148             0.3864              389.409                     37.2987
6     12     0.48          148             0.3912              414.417                     38.4777
6     12     0.48          148             0.396              507.304                     42.572
6     12     0.48          148             0.4008              607.336                     46.5805
6     12     0.48          148             0.4056              435.853                     39.4603
6     12     0.48          148             0.4104              593.046                     46.0293
6     12     0.48          148             0.4152              643.061                     47.931
6     12     0.48          148             0.42              668.069                     48.8541
6     12     0.48          148             0.4248              714.513                     50.5237
6     12     0.48          148             0.4296              685.932                     49.5029
6     12     0.48          148             0.4344              721.658                     50.7757
6     12     0.48          148             0.4392              746.666                     51.6479
6     12     0.48          148             0.444              807.399                     53.7074
6     12     0.48          148             0.4488              696.65                     49.8881
6     12     0.48          148             0.4536              778.819                     52.7483
6     12     0.48          148             0.4584              835.98                     54.6497
6     12     0.48          148             0.4632              828.835                     54.4157
6     12     0.48          148             0.468              464.433                     40.7335
6     12     0.48          148             0.4728              0                     0
*******************************************************************************************************
 Average angle 147.943 +- 1.82897 deg 
 Average E' 0.116201 +- 0.00143655 GeV 
