*******************************************************************************************************
Z     A     E(GeV)     Theta(deg)     Energy Loss(GeV)     Sigma(#mub/sr/GeV)     ERROR     Citation     
*******************************************************************************************************
6     12     0.4          154.167             0.002              0                     0
6     12     0.4          154.167             0.006              0                     0
6     12     0.4          154.167             0.01              0                     0
6     12     0.4          154.167             0.014              0                     0
6     12     0.4          154.167             0.018              0                     0
6     12     0.4          154.167             0.022              0                     0
6     12     0.4          154.167             0.026              0                     0
6     12     0.4          154.167             0.03              0                     0
6     12     0.4          154.167             0.034              0                     0
6     12     0.4          154.167             0.038              0                     0
6     12     0.4          154.167             0.042              0                     0
6     12     0.4          154.167             0.046              0                     0
6     12     0.4          154.167             0.05              0                     0
6     12     0.4          154.167             0.054              0                     0
6     12     0.4          154.167             0.058              0                     0
6     12     0.4          154.167             0.062              0                     0
6     12     0.4          154.167             0.066              0                     0
6     12     0.4          154.167             0.07              0                     0
6     12     0.4          154.167             0.074              0                     0
6     12     0.4          154.167             0.078              0                     0
6     12     0.4          154.167             0.082              0                     0
6     12     0.4          154.167             0.086              0                     0
6     12     0.4          154.167             0.09              0                     0
6     12     0.4          154.167             0.094              0                     0
6     12     0.4          154.167             0.098              0                     0
6     12     0.4          154.167             0.102              0                     0
6     12     0.4          154.167             0.106              0                     0
6     12     0.4          154.167             0.11              14.457                     8.34677
6     12     0.4          154.167             0.114              9.63802                     6.81511
6     12     0.4          154.167             0.118              24.0951                     10.7756
6     12     0.4          154.167             0.122              24.0951                     10.7756
6     12     0.4          154.167             0.126              72.2852                     18.664
6     12     0.4          154.167             0.13              81.9232                     19.8693
6     12     0.4          154.167             0.134              91.5612                     21.0056
6     12     0.4          154.167             0.138              130.113                     25.0403
6     12     0.4          154.167             0.142              159.027                     27.6831
6     12     0.4          154.167             0.146              115.656                     23.6082
6     12     0.4          154.167             0.15              221.675                     32.6841
6     12     0.4          154.167             0.154              289.141                     37.3279
6     12     0.4          154.167             0.158              380.702                     42.8323
6     12     0.4          154.167             0.162              356.607                     41.4547
6     12     0.4          154.167             0.166              337.331                     40.3187
6     12     0.4          154.167             0.17              472.263                     47.7058
6     12     0.4          154.167             0.174              481.901                     48.1901
6     12     0.4          154.167             0.178              718.033                     58.8235
6     12     0.4          154.167             0.182              597.557                     53.6622
6     12     0.4          154.167             0.186              530.091                     50.5422
6     12     0.4          154.167             0.19              824.051                     63.0168
6     12     0.4          154.167             0.194              872.241                     64.8332
6     12     0.4          154.167             0.198              737.309                     59.6079
6     12     0.4          154.167             0.202              949.345                     67.638
6     12     0.4          154.167             0.206              877.06                     65.012
6     12     0.4          154.167             0.21              915.612                     66.4255
6     12     0.4          154.167             0.214              910.793                     66.2505
6     12     0.4          154.167             0.218              766.223                     60.7654
6     12     0.4          154.167             0.222              819.232                     62.8322
6     12     0.4          154.167             0.226              775.861                     61.1464
6     12     0.4          154.167             0.23              746.947                     59.9962
6     12     0.4          154.167             0.234              544.548                     51.2268
6     12     0.4          154.167             0.238              698.757                     58.0286
6     12     0.4          154.167             0.242              597.557                     53.6622
6     12     0.4          154.167             0.246              621.652                     54.7334
6     12     0.4          154.167             0.25              568.643                     52.3479
6     12     0.4          154.167             0.254              534.91                     50.7714
6     12     0.4          154.167             0.258              505.996                     49.3802
6     12     0.4          154.167             0.262              448.168                     46.4729
6     12     0.4          154.167             0.266              346.969                     40.8907
6     12     0.4          154.167             0.27              380.702                     42.8323
6     12     0.4          154.167             0.274              346.969                     40.8907
6     12     0.4          154.167             0.278              318.055                     39.1498
6     12     0.4          154.167             0.282              269.865                     36.0622
6     12     0.4          154.167             0.286              216.856                     32.3269
6     12     0.4          154.167             0.29              192.76                     30.4781
6     12     0.4          154.167             0.294              303.598                     38.2497
6     12     0.4          154.167             0.298              313.236                     38.8521
6     12     0.4          154.167             0.302              245.77                     34.4146
6     12     0.4          154.167             0.306              308.417                     38.5521
6     12     0.4          154.167             0.31              269.865                     36.0622
6     12     0.4          154.167             0.314              255.408                     35.0829
6     12     0.4          154.167             0.318              293.96                     37.6377
6     12     0.4          154.167             0.322              342.15                     40.6057
6     12     0.4          154.167             0.326              395.159                     43.638
6     12     0.4          154.167             0.33              462.625                     47.2165
6     12     0.4          154.167             0.334              505.996                     49.3802
6     12     0.4          154.167             0.338              539.729                     50.9996
6     12     0.4          154.167             0.342              559.005                     51.9023
6     12     0.4          154.167             0.346              645.748                     55.7841
6     12     0.4          154.167             0.35              901.155                     65.899
6     12     0.4          154.167             0.354              843.327                     63.7495
6     12     0.4          154.167             0.358              1074.64                     71.9632
6     12     0.4          154.167             0.362              1219.21                     76.6511
6     12     0.4          154.167             0.366              1127.65                     73.7167
6     12     0.4          154.167             0.37              1440.88                     83.3285
6     12     0.4          154.167             0.374              1614.37                     88.2024
6     12     0.4          154.167             0.378              1696.29                     90.4127
6     12     0.4          154.167             0.382              1951.7                     96.9807
6     12     0.4          154.167             0.386              1493.89                     84.8475
6     12     0.4          154.167             0.39              0                     0
6     12     0.4          154.167             0.394              0                     0
*******************************************************************************************************
 Average angle 154.127 +- 1.69812 deg 
 Average E' 0.118258 +- 0.00130293 GeV 
