*******************************************************************************************************
Z     A     E(GeV)     Theta(deg)     Energy Loss(GeV)     Sigma(#mub/sr/GeV)     ERROR     Citation     
*******************************************************************************************************
6     12     0.48          62.6667             0.0024              0                     0
6     12     0.48          62.6667             0.0072              0                     0
6     12     0.48          62.6667             0.012              0                     0
6     12     0.48          62.6667             0.0168              0                     0
6     12     0.48          62.6667             0.0216              0                     0
6     12     0.48          62.6667             0.0264              0                     0
6     12     0.48          62.6667             0.0312              0                     0
6     12     0.48          62.6667             0.036              0                     0
6     12     0.48          62.6667             0.0408              0                     0
6     12     0.48          62.6667             0.0456              0                     0
6     12     0.48          62.6667             0.0504              57.5399                     11.0736
6     12     0.48          62.6667             0.0552              436.877                     30.5128
6     12     0.48          62.6667             0.06              843.919                     42.4085
6     12     0.48          62.6667             0.0648              1257.35                     51.7644
6     12     0.48          62.6667             0.0696              1773.08                     61.4705
6     12     0.48          62.6667             0.0744              2239.79                     69.0887
6     12     0.48          62.6667             0.0792              2849.29                     77.924
6     12     0.48          62.6667             0.084              3456.66                     85.8284
6     12     0.48          62.6667             0.0888              3814.68                     90.1637
6     12     0.48          62.6667             0.0936              4385.82                     96.6781
6     12     0.48          62.6667             0.0984              5067.77                     103.923
6     12     0.48          62.6667             0.1032              5508.91                     108.352
6     12     0.48          62.6667             0.108              5702.84                     110.242
6     12     0.48          62.6667             0.1128              5941.53                     112.526
6     12     0.48          62.6667             0.1176              6350.7                     116.336
6     12     0.48          62.6667             0.1224              6521.19                     117.887
6     12     0.48          62.6667             0.1272              6214.31                     115.08
6     12     0.48          62.6667             0.132              6112.02                     114.129
6     12     0.48          62.6667             0.1368              5655.96                     109.788
6     12     0.48          62.6667             0.1416              5491.86                     108.184
6     12     0.48          62.6667             0.1464              5167.94                     104.945
6     12     0.48          62.6667             0.1512              4803.52                     101.177
6     12     0.48          62.6667             0.156              4569.1                     98.6774
6     12     0.48          62.6667             0.1608              4162.05                     94.1795
6     12     0.48          62.6667             0.1656              3710.26                     88.9211
6     12     0.48          62.6667             0.1704              3488.62                     86.2243
6     12     0.48          62.6667             0.1752              3228.63                     82.9491
6     12     0.48          62.6667             0.18              2877                     78.3019
6     12     0.48          62.6667             0.1848              2565.85                     73.9467
6     12     0.48          62.6667             0.1896              2186.52                     68.262
6     12     0.48          62.6667             0.1944              2105.53                     66.986
6     12     0.48          62.6667             0.1992              1971.27                     64.8151
6     12     0.48          62.6667             0.204              1621.77                     58.7892
6     12     0.48          62.6667             0.2088              1391.61                     54.458
6     12     0.48          62.6667             0.2136              1285.06                     52.3316
6     12     0.48          62.6667             0.2184              1157.19                     49.6598
6     12     0.48          62.6667             0.2232              941.95                     44.804
6     12     0.48          62.6667             0.228              839.656                     42.3013
6     12     0.48          62.6667             0.2328              696.872                     38.5371
6     12     0.48          62.6667             0.2376              677.692                     38.0031
6     12     0.48          62.6667             0.2424              643.595                     37.0347
6     12     0.48          62.6667             0.2472              551.957                     34.2969
6     12     0.48          62.6667             0.252              522.121                     33.3571
6     12     0.48          62.6667             0.2568              647.857                     37.1571
6     12     0.48          62.6667             0.2616              677.692                     38.0031
6     12     0.48          62.6667             0.2664              716.052                     39.0639
6     12     0.48          62.6667             0.2712              726.708                     39.3534
6     12     0.48          62.6667             0.276              679.823                     38.0628
6     12     0.48          62.6667             0.2808              739.494                     39.6981
6     12     0.48          62.6667             0.2856              826.87                     41.978
6     12     0.48          62.6667             0.2904              878.016                     43.2568
6     12     0.48          62.6667             0.2952              846.05                     42.462
6     12     0.48          62.6667             0.3              971.785                     45.508
6     12     0.48          62.6667             0.3048              1016.54                     46.5441
6     12     0.48          62.6667             0.3096              1089                     48.1743
6     12     0.48          62.6667             0.3144              1291.45                     52.4616
6     12     0.48          62.6667             0.3192              1374.56                     54.1234
6     12     0.48          62.6667             0.324              1449.15                     55.5725
6     12     0.48          62.6667             0.3288              1666.53                     59.5949
6     12     0.48          62.6667             0.3336              1711.28                     60.3897
6     12     0.48          62.6667             0.3384              1845.54                     62.714
6     12     0.48          62.6667             0.3432              1947.83                     64.4286
6     12     0.48          62.6667             0.348              2131.11                     67.3915
6     12     0.48          62.6667             0.3528              2152.42                     67.7277
6     12     0.48          62.6667             0.3576              2391.1                     71.3842
6     12     0.48          62.6667             0.3624              2559.46                     73.8545
6     12     0.48          62.6667             0.3672              2717.16                     76.0958
6     12     0.48          62.6667             0.372              2759.78                     76.6903
6     12     0.48          62.6667             0.3768              2729.95                     76.2746
6     12     0.48          62.6667             0.3816              2755.52                     76.631
6     12     0.48          62.6667             0.3864              2994.21                     79.881
6     12     0.48          62.6667             0.3912              3113.55                     81.4574
6     12     0.48          62.6667             0.396              2989.94                     79.8241
6     12     0.48          62.6667             0.4008              3066.66                     80.8418
6     12     0.48          62.6667             0.4056              3024.04                     80.278
6     12     0.48          62.6667             0.4104              2998.47                     79.9378
6     12     0.48          62.6667             0.4152              3115.68                     81.4853
6     12     0.48          62.6667             0.42              3186.01                     82.3998
6     12     0.48          62.6667             0.4248              3132.73                     81.7079
6     12     0.48          62.6667             0.4296              3036.83                     80.4476
6     12     0.48          62.6667             0.4344              3136.99                     81.7635
6     12     0.48          62.6667             0.4392              2680.93                     75.5868
6     12     0.48          62.6667             0.444              202.455                     20.7715
6     12     0.48          62.6667             0.4488              0                     0
6     12     0.48          62.6667             0.4536              0                     0
6     12     0.48          62.6667             0.4584              0                     0
6     12     0.48          62.6667             0.4632              0                     0
6     12     0.48          62.6667             0.468              0                     0
6     12     0.48          62.6667             0.4728              0                     0
*******************************************************************************************************
 Average angle 62.6326 +- 0.200084 deg 
 Average E' 0.255077 +- 0.000814859 GeV 
