*******************************************************************************************************
Z     A     E(GeV)     Theta(deg)     Energy Loss(GeV)     Sigma(#mub/sr/GeV)     ERROR     Citation     
*******************************************************************************************************
6     12     0.62          31.5             0.0031              3.05661                     3.05661
6     12     0.62          31.5             0.0093              0                     0
6     12     0.62          31.5             0.0155              0                     0
6     12     0.62          31.5             0.0217              0                     0
6     12     0.62          31.5             0.0279              0                     0
6     12     0.62          31.5             0.0341              2747.89                     91.6473
6     12     0.62          31.5             0.0403              17046.7                     228.265
6     12     0.62          31.5             0.0465              37055.3                     336.546
6     12     0.62          31.5             0.0527              60765.4                     430.971
6     12     0.62          31.5             0.0589              78854.4                     490.945
6     12     0.62          31.5             0.0651              86465.4                     514.092
6     12     0.62          31.5             0.0713              89485.3                     522.993
6     12     0.62          31.5             0.0775              86318.6                     513.656
6     12     0.62          31.5             0.0837              81091.8                     497.861
6     12     0.62          31.5             0.0899              75094.8                     479.098
6     12     0.62          31.5             0.0961              67147.6                     453.039
6     12     0.62          31.5             0.1023              59518.3                     426.526
6     12     0.62          31.5             0.1085              52185.5                     399.388
6     12     0.62          31.5             0.1147              45323.4                     372.204
6     12     0.62          31.5             0.1209              38840.3                     344.557
6     12     0.62          31.5             0.1271              33491.3                     319.953
6     12     0.62          31.5             0.1333              27069.3                     287.646
6     12     0.62          31.5             0.1395              22933.7                     264.763
6     12     0.62          31.5             0.1457              18795.1                     239.686
6     12     0.62          31.5             0.1519              14528.1                     210.729
6     12     0.62          31.5             0.1581              11312.5                     185.951
6     12     0.62          31.5             0.1643              8576.84                     161.914
6     12     0.62          31.5             0.1705              6168.24                     137.309
6     12     0.62          31.5             0.1767              4239.52                     113.836
6     12     0.62          31.5             0.1829              2757.06                     91.8001
6     12     0.62          31.5             0.1891              1858.42                     75.3688
6     12     0.62          31.5             0.1953              1396.87                     65.3428
6     12     0.62          31.5             0.2015              1354.08                     64.3342
6     12     0.62          31.5             0.2077              1299.06                     63.0136
6     12     0.62          31.5             0.2139              1482.46                     67.3148
6     12     0.62          31.5             0.2201              1766.72                     73.4859
6     12     0.62          31.5             0.2263              1937.89                     76.9634
6     12     0.62          31.5             0.2325              2063.21                     79.413
6     12     0.62          31.5             0.2387              2139.63                     80.8703
6     12     0.62          31.5             0.2449              2381.1                     85.3117
6     12     0.62          31.5             0.2511              2469.74                     86.8851
6     12     0.62          31.5             0.2573              2576.72                     88.747
6     12     0.62          31.5             0.2635              2949.63                     94.9519
6     12     0.62          31.5             0.2697              2961.85                     95.1485
6     12     0.62          31.5             0.2759              3273.63                     100.031
6     12     0.62          31.5             0.2821              3606.8                     104.998
6     12     0.62          31.5             0.2883              4059.18                     111.388
6     12     0.62          31.5             0.2945              4318.99                     114.898
6     12     0.62          31.5             0.3007              4698.01                     119.833
6     12     0.62          31.5             0.3069              5339.9                     127.757
6     12     0.62          31.5             0.3131              5599.71                     130.829
6     12     0.62          31.5             0.3193              6492.24                     140.87
6     12     0.62          31.5             0.3255              7170.8                     148.048
6     12     0.62          31.5             0.3317              7684.31                     153.258
6     12     0.62          31.5             0.3379              8161.15                     157.941
6     12     0.62          31.5             0.3441              8644.09                     162.547
6     12     0.62          31.5             0.3503              8891.68                     164.859
6     12     0.62          31.5             0.3565              9454.09                     169.993
6     12     0.62          31.5             0.3627              9548.85                     170.842
6     12     0.62          31.5             0.3689              10016.5                     174.976
6     12     0.62          31.5             0.3751              6.12344e+06                     4326.31
6     12     0.62          31.5             0.3813              10236.6                     176.888
6     12     0.62          31.5             0.3875              9952.32                     174.414
6     12     0.62          31.5             0.3937              9808.66                     173.151
6     12     0.62          31.5             0.3999              9576.36                     171.088
6     12     0.62          31.5             0.4061              9567.19                     171.006
6     12     0.62          31.5             0.4123              9833.11                     173.367
6     12     0.62          31.5             0.4185              8900.84                     164.944
6     12     0.62          31.5             0.4247              8888.62                     164.83
6     12     0.62          31.5             0.4309              8335.37                     159.618
6     12     0.62          31.5             0.4371              8127.52                     157.616
6     12     0.62          31.5             0.4433              7571.22                     152.126
6     12     0.62          31.5             0.4495              7580.39                     152.218
6     12     0.62          31.5             0.4557              7296.13                     149.337
6     12     0.62          31.5             0.4619              6996.58                     146.239
6     12     0.62          31.5             0.4681              6418.88                     140.071
6     12     0.62          31.5             0.4743              6354.69                     139.369
6     12     0.62          31.5             0.4805              6198.8                     137.649
6     12     0.62          31.5             0.4867              5908.42                     134.387
6     12     0.62          31.5             0.4929              5611.93                     130.971
6     12     0.62          31.5             0.4991              5077.03                     124.573
6     12     0.62          31.5             0.5053              3554.84                     104.239
6     12     0.62          31.5             0.5115              2173.25                     81.5032
6     12     0.62          31.5             0.5177              544.076                     40.7802
6     12     0.62          31.5             0.5239              0                     0
6     12     0.62          31.5             0.5301              0                     0
6     12     0.62          31.5             0.5363              0                     0
6     12     0.62          31.5             0.5425              0                     0
6     12     0.62          31.5             0.5487              0                     0
6     12     0.62          31.5             0.5549              0                     0
6     12     0.62          31.5             0.5611              0                     0
6     12     0.62          31.5             0.5673              0                     0
6     12     0.62          31.5             0.5735              0                     0
6     12     0.62          31.5             0.5797              0                     0
6     12     0.62          31.5             0.5859              0                     0
6     12     0.62          31.5             0.5921              0                     0
6     12     0.62          31.5             0.5983              0                     0
6     12     0.62          31.5             0.6045              0                     0
6     12     0.62          31.5             0.6107              0                     0
*******************************************************************************************************
 Average angle 32.1399 +- 0.0205848 deg 
 Average E' 0.28495 +- 0.000182503 GeV 
